Temperature (C) Pressure (psia) Quality (l+v) Internal Energy (l+v, kJ/kg) Enthalpy (l+v, kJ/kg) Entropy (l+v, J/g*K) Density (l, kg/m3) Volume (l, m3/kg) Internal Energy (l, kJ/kg) Enthalpy (l, kJ/kg) Entropy (l, J/g*K) Cv (l, J/g*K) Cp (l, J/g*K) Sound Spd. (l, m/s) Joule-Thomson (l, F/psia) Viscosity (l, uPa*s) Therm. Cond. (l, W/m*K) Density (v, kg/m3) Volume (v, m3/kg) Internal Energy (v, kJ/kg) Enthalpy (v, kJ/kg) Entropy (v, J/g*K) Cv (v, J/g*K) Cp (v, J/g*K) Sound Spd. (v, m/s) Joule-Thomson (v, F/psia) Viscosity (v, uPa*s) Therm. Cond. (v, W/m*K)
-187.62 2.4953e-08 1.4908e-12 -196.64 -196.64 -1.3959 733.13 0.0013640 -196.64 -196.64 -1.3959 1.3553 1.9158 2136.4 -0.0077592 10960. 0.20792 1.0669e-08 9.3732e+07 350.13 366.26 5.1858 0.69067 0.87923 143.28 6.1051 2.3259 0.0017061
-186.62 3.7339e-08 2.1743e-12 -194.73 -194.73 -1.3736 732.08 0.0013660 -194.73 -194.73 -1.3736 1.3539 1.9166 2129.6 -0.0077546 10073. 0.20765 1.5780e-08 6.3371e+07 350.82 367.14 5.1200 0.69462 0.88317 144.03 5.9178 2.3534 0.0017533
-185.62 5.5322e-08 3.1397e-12 -192.81 -192.81 -1.3516 731.04 0.0013679 -192.81 -192.81 -1.3516 1.3525 1.9174 2122.9 -0.0077498 9276.1 0.20737 2.3112e-08 4.3267e+07 351.52 368.02 5.0561 0.69857 0.88713 144.77 5.7383 2.3808 0.0018007
-184.62 8.1182e-08 4.4899e-12 -190.89 -190.89 -1.3298 730.00 0.0013699 -190.89 -190.89 -1.3298 1.3513 1.9182 2116.1 -0.0077448 8557.8 0.20708 3.3533e-08 2.9821e+07 352.22 368.91 4.9939 0.70253 0.89108 145.51 5.5662 2.4083 0.0018485
-183.62 1.1803e-07 6.3609e-12 -188.97 -188.97 -1.3083 728.96 0.0013718 -188.97 -188.97 -1.3083 1.3501 1.9191 2109.3 -0.0077395 7909.8 0.20678 4.8211e-08 2.0742e+07 352.92 369.81 4.9333 0.70648 0.89504 146.24 5.4011 2.4357 0.0018965
-182.62 1.7009e-07 8.9304e-12 -187.05 -187.05 -1.2869 727.92 0.0013738 -187.05 -187.05 -1.2869 1.3490 1.9201 2102.5 -0.0077340 7324.3 0.20647 6.8704e-08 1.4555e+07 353.63 370.70 4.8744 0.71043 0.89899 146.97 5.2426 2.4632 0.0019448
-181.62 2.4299e-07 1.2428e-11 -185.13 -185.13 -1.2658 726.88 0.0013757 -185.13 -185.13 -1.2658 1.3480 1.9210 2095.7 -0.0077283 6794.5 0.20616 9.7079e-08 1.0301e+07 354.35 371.60 4.8170 0.71438 0.90294 147.69 5.0904 2.4906 0.0019934
-180.62 3.4425e-07 1.7150e-11 -183.21 -183.21 -1.2450 725.85 0.0013777 -183.21 -183.21 -1.2450 1.3470 1.9220 2088.9 -0.0077225 6314.4 0.20584 1.3605e-07 7.3504e+06 355.06 372.51 4.7612 0.71833 0.90688 148.41 4.9442 2.5181 0.0020423
-179.62 4.8378e-07 2.3473e-11 -181.29 -181.29 -1.2243 724.81 0.0013797 -181.29 -181.29 -1.2243 1.3461 1.9231 2082.0 -0.0077164 5878.8 0.20551 1.8915e-07 5.2868e+06 355.78 373.42 4.7068 0.72227 0.91082 149.13 4.8038 2.5456 0.0020915
-178.62 6.7459e-07 3.1870e-11 -179.37 -179.37 -1.2038 723.78 0.0013816 -179.37 -179.37 -1.2038 1.3453 1.9241 2075.2 -0.0077102 5482.9 0.20517 2.6096e-07 3.8320e+06 356.51 374.33 4.6538 0.72620 0.91475 149.84 4.6688 2.5731 0.0021410
-177.62 9.3358e-07 4.2940e-11 -177.44 -177.44 -1.1836 722.75 0.0013836 -177.44 -177.44 -1.1836 1.3445 1.9252 2068.4 -0.0077039 5122.6 0.20483 3.5737e-07 2.7982e+06 357.23 375.25 4.6022 0.73012 0.91867 150.54 4.5390 2.6005 0.0021907
-176.62 1.2826e-06 5.7421e-11 -175.52 -175.52 -1.1635 721.72 0.0013856 -175.52 -175.52 -1.1635 1.3437 1.9263 2061.5 -0.0076973 4794.1 0.20447 4.8588e-07 2.0581e+06 357.97 376.17 4.5519 0.73403 0.92258 151.25 4.4142 2.6280 0.0022408
-175.62 1.7496e-06 7.6230e-11 -173.59 -173.59 -1.1437 720.69 0.0013876 -173.59 -173.59 -1.1437 1.3430 1.9274 2054.7 -0.0076907 4494.3 0.20411 6.5601e-07 1.5244e+06 358.70 377.09 4.5029 0.73792 0.92648 151.95 4.2941 2.6555 0.0022912
-174.62 2.3705e-06 1.0049e-10 -171.66 -171.66 -1.1240 719.66 0.0013895 -171.66 -171.66 -1.1240 1.3423 1.9286 2047.9 -0.0076838 4220.2 0.20375 8.7976e-07 1.1367e+06 359.44 378.02 4.4551 0.74181 0.93036 152.64 4.1784 2.6830 0.0023418
-173.62 3.1903e-06 1.3155e-10 -169.73 -169.73 -1.1045 718.64 0.0013915 -169.73 -169.73 -1.1045 1.3417 1.9298 2041.0 -0.0076769 3969.3 0.20338 1.1721e-06 8.5314e+05 360.19 378.95 4.4085 0.74568 0.93423 153.33 4.0671 2.7105 0.0023928
-172.62 4.2661e-06 1.7108e-10 -167.80 -167.80 -1.0852 717.61 0.0013935 -167.80 -167.80 -1.0852 1.3411 1.9310 2034.2 -0.0076698 3739.3 0.20300 1.5518e-06 6.4441e+05 360.93 379.89 4.3631 0.74953 0.93809 154.02 3.9599 2.7379 0.0024440
-171.62 5.6692e-06 2.2104e-10 -165.87 -165.87 -1.0661 716.58 0.0013955 -165.87 -165.87 -1.0661 1.3405 1.9322 2027.3 -0.0076625 3528.0 0.20261 2.0419e-06 4.8974e+05 361.69 380.83 4.3188 0.75337 0.94193 154.71 3.8566 2.7654 0.0024955
-170.62 7.4884e-06 2.8378e-10 -163.94 -163.94 -1.0472 715.56 0.0013975 -163.94 -163.94 -1.0472 1.3400 1.9334 2020.5 -0.0076552 3333.8 0.20222 2.6708e-06 3.7442e+05 362.44 381.77 4.2755 0.75720 0.94575 155.39 3.7570 2.7929 0.0025473
-169.62 9.8334e-06 3.6210e-10 -162.00 -162.00 -1.0284 714.54 0.0013995 -162.00 -162.00 -1.0284 1.3395 1.9347 2013.6 -0.0076477 3154.9 0.20182 3.4733e-06 2.8791e+05 363.20 382.72 4.2334 0.76100 0.94956 156.07 3.6609 2.8204 0.0025994
-168.62 1.2839e-05 4.5926e-10 -160.07 -160.07 -1.0098 713.52 0.0014015 -160.07 -160.07 -1.0098 1.3390 1.9359 2006.8 -0.0076401 2989.9 0.20141 4.4917e-06 2.2263e+05 363.96 383.67 4.1922 0.76479 0.95335 156.74 3.5683 2.8479 0.0026518
-167.62 1.6672e-05 5.7910e-10 -158.13 -158.13 -0.99134 712.49 0.0014035 -158.13 -158.13 -0.99134 1.3386 1.9372 2000.0 -0.0076323 2837.5 0.20100 5.7771e-06 1.7310e+05 364.73 384.63 4.1521 0.76856 0.95712 157.41 3.4790 2.8754 0.0027045
-166.62 2.1533e-05 7.2603e-10 -156.19 -156.19 -0.97306 711.47 0.0014055 -156.19 -156.19 -0.97306 1.3382 1.9385 1993.1 -0.0076245 2696.5 0.20058 7.3914e-06 1.3529e+05 365.50 385.59 4.1129 0.77232 0.96087 158.08 3.3927 2.9029 0.0027575
-165.62 2.7666e-05 9.0518e-10 -154.25 -154.25 -0.95494 710.45 0.0014075 -154.25 -154.25 -0.95494 1.3378 1.9398 1986.3 -0.0076165 2566.0 0.20016 9.4084e-06 1.0629e+05 366.27 386.55 4.0746 0.77605 0.96460 158.75 3.3095 2.9304 0.0028108
-164.62 3.5367e-05 1.1224e-09 -152.31 -152.31 -0.93698 709.44 0.0014096 -152.31 -152.31 -0.93698 1.3375 1.9411 1979.4 -0.0076084 2444.9 0.19973 1.1916e-05 83918. 367.05 387.52 4.0372 0.77976 0.96832 159.41 3.2291 2.9579 0.0028643
-163.62 4.4989e-05 1.3843e-09 -150.37 -150.37 -0.91917 708.42 0.0014116 -150.37 -150.37 -0.91917 1.3371 1.9424 1972.6 -0.0076002 2332.3 0.19930 1.5020e-05 66577. 367.83 388.49 4.0008 0.78346 0.97201 160.07 3.1514 2.9854 0.0029182
-162.62 5.6956e-05 1.6984e-09 -148.43 -148.43 -0.90151 707.40 0.0014136 -148.43 -148.43 -0.90151 1.3368 1.9437 1965.8 -0.0075919 2227.7 0.19886 1.8844e-05 53068. 368.62 389.46 3.9651 0.78713 0.97569 160.72 3.0764 3.0129 0.0029723
-161.62 7.1773e-05 2.0732e-09 -146.48 -146.48 -0.88400 706.38 0.0014157 -146.48 -146.48 -0.88400 1.3365 1.9451 1959.0 -0.0075834 2130.2 0.19841 2.3533e-05 42494. 369.41 390.44 3.9304 0.79079 0.97935 161.38 3.0038 3.0404 0.0030268
-160.62 9.0036e-05 2.5180e-09 -144.54 -144.54 -0.86663 705.37 0.0014177 -144.54 -144.54 -0.86663 1.3363 1.9465 1952.1 -0.0075748 2039.2 0.19796 2.9258e-05 34178. 370.20 391.42 3.8964 0.79443 0.98298 162.03 2.9337 3.0679 0.0030815
-159.62 0.00011245 3.0432e-09 -142.59 -142.59 -0.84940 704.35 0.0014197 -142.59 -142.59 -0.84940 1.3360 1.9478 1945.3 -0.0075661 1954.2 0.19751 3.6221e-05 27609. 371.00 392.40 3.8632 0.79805 0.98660 162.68 2.8658 3.0955 0.0031365
-158.62 0.00013985 3.6601e-09 -140.64 -140.64 -0.83231 703.34 0.0014218 -140.64 -140.64 -0.83231 1.3358 1.9492 1938.5 -0.0075573 1874.8 0.19705 4.4652e-05 22395. 371.80 393.39 3.8307 0.80164 0.99020 163.32 2.8002 3.1230 0.0031918
-157.62 0.00017320 4.3811e-09 -138.69 -138.69 -0.81536 702.32 0.0014238 -138.69 -138.69 -0.81536 1.3356 1.9506 1931.7 -0.0075484 1800.3 0.19658 5.4822e-05 18241. 372.60 394.38 3.7990 0.80522 0.99378 163.96 2.7367 3.1505 0.0032474
-156.62 0.00021364 5.2197e-09 -136.74 -136.74 -0.79854 701.31 0.0014259 -136.74 -136.74 -0.79854 1.3354 1.9520 1924.9 -0.0075393 1730.5 0.19611 6.7040e-05 14916. 373.41 395.38 3.7680 0.80878 0.99734 164.60 2.6752 3.1780 0.0033033
-155.62 0.00026248 6.1900e-09 -134.79 -134.79 -0.78185 700.30 0.0014280 -134.79 -134.79 -0.78185 1.3352 1.9534 1918.1 -0.0075302 1664.9 0.19564 8.1666e-05 12245. 374.22 396.38 3.7377 0.81232 1.0009 165.24 2.6157 3.2055 0.0033595
-154.62 0.00032125 7.3071e-09 -132.83 -132.83 -0.76530 699.29 0.0014300 -132.83 -132.83 -0.76530 1.3350 1.9548 1911.3 -0.0075209 1603.3 0.19516 9.9109e-05 10090. 375.03 397.38 3.7081 0.81585 1.0044 165.87 2.5580 3.2330 0.0034160
-153.62 0.00039171 8.5870e-09 -130.88 -130.88 -0.74887 698.27 0.0014321 -130.88 -130.88 -0.74887 1.3349 1.9563 1904.5 -0.0075114 1545.3 0.19468 0.00011984 8344.6 375.85 398.39 3.6792 0.81935 1.0079 166.50 2.5022 3.2606 0.0034727
-152.62 0.00047590 1.0046e-08 -128.92 -128.92 -0.73256 697.26 0.0014342 -128.92 -128.92 -0.73256 1.3348 1.9577 1897.8 -0.0075019 1490.6 0.19419 0.00014439 6925.9 376.67 399.40 3.6509 0.82284 1.0114 167.13 2.4481 3.2881 0.0035298
-151.62 0.00057613 1.1700e-08 -126.96 -126.96 -0.71638 696.25 0.0014363 -126.96 -126.96 -0.71638 1.3346 1.9592 1891.0 -0.0074922 1438.9 0.19370 0.00017336 5768.4 377.49 400.41 3.6232 0.82631 1.0149 167.76 2.3957 3.3156 0.0035872
-150.62 0.00069507 1.3567e-08 -125.00 -125.00 -0.70032 695.24 0.0014384 -125.00 -125.00 -0.70032 1.3345 1.9606 1884.2 -0.0074824 1390.2 0.19320 0.00020744 4820.7 378.32 401.42 3.5962 0.82976 1.0183 168.38 2.3448 3.3431 0.0036448
-149.62 0.00083574 1.5663e-08 -123.04 -123.04 -0.68438 694.23 0.0014404 -123.04 -123.04 -0.68438 1.3345 1.9621 1877.4 -0.0074724 1344.0 0.19270 0.00024740 4042.0 379.15 402.44 3.5697 0.83319 1.0218 169.00 2.2956 3.3706 0.0037027
-148.62 0.0010016 1.8003e-08 -121.08 -121.08 -0.66855 693.22 0.0014425 -121.08 -121.08 -0.66855 1.3344 1.9636 1870.7 -0.0074623 1300.3 0.19220 0.00029412 3400.0 379.99 403.47 3.5438 0.83661 1.0252 169.62 2.2478 3.3982 0.0037610
-147.62 0.0011965 2.0601e-08 -119.11 -119.11 -0.65284 692.21 0.0014447 -119.11 -119.11 -0.65284 1.3343 1.9651 1863.9 -0.0074521 1258.9 0.19169 0.00034856 2869.0 380.83 404.49 3.5185 0.84001 1.0286 170.24 2.2014 3.4257 0.0038195
-146.62 0.0014249 2.3471e-08 -117.15 -117.15 -0.63724 691.20 0.0014468 -117.15 -117.15 -0.63724 1.3343 1.9666 1857.2 -0.0074417 1219.6 0.19117 0.00041181 2428.3 381.67 405.52 3.4938 0.84340 1.0320 170.85 2.1565 3.4532 0.0038783
-145.62 0.0016917 2.6620e-08 -115.18 -115.18 -0.62175 690.19 0.0014489 -115.18 -115.18 -0.62175 1.3343 1.9682 1850.4 -0.0074312 1182.3 0.19066 0.00048510 2061.4 382.51 406.56 3.4695 0.84677 1.0353 171.46 2.1128 3.4807 0.0039374
-144.62 0.0020026 3.0057e-08 -113.21 -113.21 -0.60637 689.18 0.0014510 -113.21 -113.21 -0.60637 1.3343 1.9697 1843.7 -0.0074206 1146.8 0.19014 0.00056976 1755.1 383.36 407.59 3.4458 0.85012 1.0387 172.07 2.0705 3.5082 0.0039967
-143.62 0.0023637 3.3782e-08 -111.24 -111.24 -0.59110 688.17 0.0014531 -111.24 -111.24 -0.59110 1.3343 1.9713 1836.9 -0.0074098 1113.0 0.18962 0.00066731 1498.6 384.21 408.63 3.4226 0.85346 1.0420 172.68 2.0294 3.5358 0.0040564
-142.62 0.0027820 3.7791e-08 -109.27 -109.27 -0.57593 687.16 0.0014553 -109.27 -109.27 -0.57593 1.3343 1.9728 1830.2 -0.0073988 1080.8 0.18909 0.00077939 1283.1 385.07 409.68 3.3999 0.85679 1.0454 173.28 1.9896 3.5633 0.0041164
-141.62 0.0032653 4.2075e-08 -107.30 -107.30 -0.56087 686.15 0.0014574 -107.30 -107.30 -0.56087 1.3343 1.9744 1823.5 -0.0073878 1050.1 0.18856 0.00090784 1101.5 385.93 410.72 3.3777 0.86011 1.0487 173.88 1.9508 3.5908 0.0041766
-140.62 0.0038222 4.6615e-08 -105.32 -105.32 -0.54591 685.14 0.0014596 -105.32 -105.32 -0.54591 1.3344 1.9760 1816.7 -0.0073765 1020.7 0.18803 0.0010547 948.16 386.79 411.77 3.3560 0.86341 1.0520 174.48 1.9133 3.6183 0.0042372
-139.62 0.0044623 5.1382e-08 -103.34 -103.34 -0.53105 684.13 0.0014617 -103.34 -103.34 -0.53105 1.3344 1.9776 1810.0 -0.0073651 992.74 0.18749 0.0012221 818.26 387.65 412.83 3.3347 0.86670 1.0553 175.08 1.8768 3.6459 0.0042980
-138.62 0.0051963 5.6337e-08 -101.37 -101.37 -0.51629 683.12 0.0014639 -101.37 -101.37 -0.51629 1.3345 1.9792 1803.3 -0.0073536 965.97 0.18695 0.0014125 707.94 388.52 413.88 3.3139 0.86998 1.0586 175.67 1.8413 3.6734 0.0043592
-137.62 0.0060358 6.1427e-08 -99.386 -99.386 -0.50162 682.11 0.0014660 -99.386 -99.386 -0.50162 1.3346 1.9808 1796.6 -0.0073419 940.35 0.18641 0.0016287 614.00 389.39 414.94 3.2935 0.87325 1.0619 176.26 1.8069 3.7009 0.0044206
-136.62 0.0069938 6.6582e-08 -97.404 -97.404 -0.48705 681.10 0.0014682 -97.404 -97.404 -0.48705 1.3347 1.9825 1789.9 -0.0073301 915.81 0.18586 0.0018733 533.80 390.26 416.00 3.2735 0.87650 1.0651 176.85 1.7734 3.7284 0.0044823
-135.62 0.0080843 7.1717e-08 -95.421 -95.421 -0.47258 680.09 0.0014704 -95.421 -95.421 -0.47258 1.3348 1.9841 1783.2 -0.0073180 892.30 0.18531 0.0021497 465.17 391.14 417.07 3.2540 0.87975 1.0684 177.44 1.7409 3.7559 0.0045443
-134.62 0.0093230 7.6724e-08 -93.436 -93.436 -0.45820 679.08 0.0014726 -93.436 -93.436 -0.45820 1.3350 1.9858 1776.5 -0.0073059 869.75 0.18476 0.0024613 406.30 392.02 418.14 3.2348 0.88299 1.0716 178.02 1.7093 3.7834 0.0046066
-133.62 0.010727 8.1474e-08 -91.449 -91.449 -0.44391 678.07 0.0014748 -91.450 -91.449 -0.44391 1.3351 1.9875 1769.8 -0.0072935 848.11 0.18421 0.0028116 355.67 392.91 419.21 3.2161 0.88622 1.0749 178.61 1.6786 3.8109 0.0046691
-132.62 0.012315 8.5811e-08 -89.461 -89.461 -0.42971 677.06 0.0014770 -89.461 -89.461 -0.42971 1.3353 1.9892 1763.1 -0.0072810 827.32 0.18365 0.0032049 312.03 393.79 420.29 3.1977 0.88944 1.0781 179.19 1.6488 3.8385 0.0047320
-131.62 0.014106 8.9550e-08 -87.471 -87.471 -0.41560 676.04 0.0014792 -87.471 -87.471 -0.41560 1.3354 1.9909 1756.4 -0.0072684 807.34 0.18309 0.0036453 274.33 394.68 421.36 3.1798 0.89266 1.0813 179.76 1.6197 3.8660 0.0047951
-130.62 0.016124 9.2471e-08 -85.479 -85.479 -0.40157 675.03 0.0014814 -85.479 -85.479 -0.40157 1.3356 1.9926 1749.7 -0.0072555 788.12 0.18253 0.0041375 241.69 395.58 422.44 3.1622 0.89586 1.0846 180.34 1.5915 3.8935 0.0048586
-129.62 0.018392 9.4320e-08 -83.486 -83.486 -0.38763 674.02 0.0014836 -83.486 -83.486 -0.38763 1.3358 1.9944 1743.0 -0.0072425 769.63 0.18196 0.0046867 213.37 396.47 423.53 3.1450 0.89906 1.0878 180.91 1.5641 3.9210 0.0049223
-128.62 0.020935 9.4802e-08 -81.491 -81.490 -0.37378 673.01 0.0014859 -81.491 -81.490 -0.37378 1.3360 1.9961 1736.3 -0.0072294 751.83 0.18140 0.0052981 188.75 397.37 424.62 3.1281 0.90226 1.0910 181.48 1.5374 3.9485 0.0049863
-127.62 0.023783 9.3575e-08 -79.494 -79.493 -0.36001 672.00 0.0014881 -79.494 -79.493 -0.36001 1.3363 1.9979 1729.6 -0.0072160 734.67 0.18083 0.0059776 167.29 398.27 425.71 3.1116 0.90545 1.0942 182.05 1.5114 3.9760 0.0050506
-126.62 0.026966 9.0248e-08 -77.495 -77.495 -0.34632 670.98 0.0014904 -77.495 -77.495 -0.34632 1.3365 1.9997 1722.9 -0.0072025 718.14 0.18025 0.0067313 148.56 399.18 426.80 3.0954 0.90863 1.0974 182.62 1.4861 4.0035 0.0051152
-125.62 0.030515 8.4377e-08 -75.494 -75.494 -0.33272 669.97 0.0014926 -75.494 -75.494 -0.33272 1.3368 2.0015 1716.2 -0.0071888 702.18 0.17968 0.0075660 132.17 400.09 427.89 3.0795 0.91181 1.1006 183.18 1.4615 4.0310 0.0051800
-124.62 0.034467 7.5457e-08 -73.492 -73.491 -0.31919 668.95 0.0014949 -73.492 -73.492 -0.31919 1.3371 2.0033 1709.5 -0.0071749 686.79 0.17910 0.0084885 117.81 401.00 428.99 3.0640 0.91499 1.1038 183.74 1.4375 4.0584 0.0052452
-123.62 0.038859 6.2917e-08 -71.488 -71.487 -0.30574 667.94 0.0014971 -71.488 -71.487 -0.30574 1.3374 2.0051 1702.8 -0.0071609 671.93 0.17852 0.0095065 105.19 401.91 430.10 3.0488 0.91816 1.1070 184.30 1.4141 4.0859 0.0053106
-122.62 0.043731 4.6117e-08 -69.482 -69.481 -0.29237 666.92 0.0014994 -69.482 -69.481 -0.29237 1.3377 2.0070 1696.2 -0.0071466 657.57 0.17794 0.010628 94.092 402.83 431.20 3.0339 0.92134 1.1102 184.86 1.3913 4.1134 0.0053764
-121.62 0.049128 2.4336e-08 -67.474 -67.473 -0.27907 665.91 0.0015017 -67.474 -67.473 -0.27907 1.3380 2.0089 1689.5 -0.0071322 643.70 0.17736 0.011861 84.309 403.75 432.31 3.0193 0.92451 1.1134 185.41 1.3691 4.1409 0.0054424
-120.62 29.576 undefined -65.535 -65.229 -0.26632 665.00 0.0015038 -65.535 -65.229 -0.26632 1.3386 2.0105 1683.8 -0.0071197 631.31 0.17686 665.00 0.0015038 -65.535 -65.229 -0.26632 1.3386 2.0105 1683.8 -0.0071197 631.31 0.17686
-119.62 307.30 undefined -64.196 -61.009 -0.25757 665.00 0.0015038 -64.196 -61.009 -0.25757 1.3409 2.0099 1686.3 -0.0071248 627.79 0.17709 665.00 0.0015038 -64.196 -61.009 -0.25757 1.3409 2.0099 1686.3 -0.0071248 627.79 0.17709
-118.62 584.22 undefined -62.853 -56.796 -0.24885 665.00 0.0015038 -62.853 -56.796 -0.24885 1.3432 2.0094 1688.9 -0.0071296 624.33 0.17732 665.00 0.0015038 -62.853 -56.796 -0.24885 1.3432 2.0094 1688.9 -0.0071296 624.33 0.17732
-117.62 860.35 undefined -61.509 -52.589 -0.24018 665.00 0.0015038 -61.509 -52.589 -0.24018 1.3455 2.0089 1691.4 -0.0071343 620.93 0.17755 665.00 0.0015038 -61.509 -52.589 -0.24018 1.3455 2.0089 1691.4 -0.0071343 620.93 0.17755
-116.62 1135.7 undefined -60.162 -48.387 -0.23155 665.00 0.0015038 -60.162 -48.387 -0.23155 1.3478 2.0084 1693.9 -0.0071388 617.59 0.17778 665.00 0.0015038 -60.162 -48.387 -0.23155 1.3478 2.0084 1693.9 -0.0071388 617.59 0.17778
-115.62 1410.3 undefined -58.813 -44.192 -0.22296 665.00 0.0015038 -58.813 -44.192 -0.22296 1.3502 2.0080 1696.4 -0.0071432 614.30 0.17801 665.00 0.0015038 -58.813 -44.192 -0.22296 1.3502 2.0080 1696.4 -0.0071432 614.30 0.17801
-114.62 1684.1 undefined -57.462 -40.002 -0.21441 665.00 0.0015038 -57.462 -40.002 -0.21441 1.3525 2.0077 1698.9 -0.0071473 611.07 0.17824 665.00 0.0015038 -57.462 -40.002 -0.21441 1.3525 2.0077 1698.9 -0.0071473 611.07 0.17824
-113.62 1957.1 undefined -56.108 -35.817 -0.20589 665.00 0.0015038 -56.108 -35.817 -0.20589 1.3548 2.0073 1701.4 -0.0071513 607.89 0.17848 665.00 0.0015038 -56.108 -35.817 -0.20589 1.3548 2.0073 1701.4 -0.0071513 607.89 0.17848
-112.62 2229.4 undefined -54.752 -31.638 -0.19742 665.00 0.0015038 -54.752 -31.638 -0.19742 1.3572 2.0070 1703.9 -0.0071551 604.76 0.17871 665.00 0.0015038 -54.752 -31.638 -0.19742 1.3572 2.0070 1703.9 -0.0071551 604.76 0.17871
-111.62 2500.9 undefined -53.394 -27.464 -0.18898 665.00 0.0015038 -53.394 -27.464 -0.18898 1.3595 2.0068 1706.4 -0.0071587 601.68 0.17894 665.00 0.0015038 -53.394 -27.464 -0.18898 1.3595 2.0068 1706.4 -0.0071587 601.68 0.17894
-110.62 2771.7 undefined -52.033 -23.296 -0.18059 665.00 0.0015038 -52.033 -23.296 -0.18059 1.3619 2.0066 1708.8 -0.0071622 598.65 0.17917 665.00 0.0015038 -52.033 -23.296 -0.18059 1.3619 2.0066 1708.8 -0.0071622 598.65 0.17917
-109.62 3041.8 undefined -50.670 -19.133 -0.17223 665.00 0.0015038 -50.670 -19.133 -0.17223 1.3642 2.0064 1711.2 -0.0071654 595.67 0.17940 665.00 0.0015038 -50.670 -19.133 -0.17223 1.3642 2.0064 1711.2 -0.0071654 595.67 0.17940
-108.62 3311.1 undefined -49.305 -14.975 -0.16390 665.00 0.0015038 -49.305 -14.975 -0.16390 1.3666 2.0063 1713.6 -0.0071685 592.74 0.17964 665.00 0.0015038 -49.305 -14.975 -0.16390 1.3666 2.0063 1713.6 -0.0071685 592.74 0.17964
-107.62 3579.7 undefined -47.937 -10.822 -0.15561 665.00 0.0015038 -47.937 -10.822 -0.15561 1.3690 2.0062 1716.0 -0.0071715 589.86 0.17987 665.00 0.0015038 -47.937 -10.822 -0.15561 1.3690 2.0062 1716.0 -0.0071715 589.86 0.17987
-106.62 3847.6 undefined -46.567 -6.6745 -0.14736 665.00 0.0015038 -46.567 -6.6745 -0.14736 1.3714 2.0061 1718.4 -0.0071742 587.02 0.18010 665.00 0.0015038 -46.567 -6.6745 -0.14736 1.3714 2.0061 1718.4 -0.0071742 587.02 0.18010
-105.62 4114.8 undefined -45.194 -2.5317 -0.13914 665.00 0.0015038 -45.194 -2.5317 -0.13914 1.3738 2.0061 1720.8 -0.0071768 584.23 0.18034 665.00 0.0015038 -45.194 -2.5317 -0.13914 1.3738 2.0061 1720.8 -0.0071768 584.23 0.18034
-104.62 4381.3 undefined -43.819 1.6062 -0.13096 665.00 0.0015038 -43.819 1.6062 -0.13096 1.3762 2.0061 1723.2 -0.0071793 581.48 0.18057 665.00 0.0015038 -43.819 1.6062 -0.13096 1.3762 2.0061 1723.2 -0.0071793 581.48 0.18057
