Temperature (C) Pressure (psia) Quality (l+v) Internal Energy (l+v, kJ/kg) Enthalpy (l+v, kJ/kg) Entropy (l+v, J/g*K) Density (l, kg/m3) Volume (l, m3/kg) Internal Energy (l, kJ/kg) Enthalpy (l, kJ/kg) Entropy (l, J/g*K) Cv (l, J/g*K) Cp (l, J/g*K) Sound Spd. (l, m/s) Joule-Thomson (l, F/psia) Viscosity (l, uPa*s) Therm. Cond. (l, W/m*K) Density (v, kg/m3) Volume (v, m3/kg) Internal Energy (v, kJ/kg) Enthalpy (v, kJ/kg) Entropy (v, J/g*K) Cv (v, J/g*K) Cp (v, J/g*K) Sound Spd. (v, m/s) Joule-Thomson (v, F/psia) Viscosity (v, uPa*s) Therm. Cond. (v, W/m*K)
-187.62 2.4953e-08 1.2531e-12 -196.64 -196.64 -1.3959 733.13 0.0013640 -196.64 -196.64 -1.3959 1.3553 1.9158 2136.4 -0.0077592 10960. 0.20792 1.0669e-08 9.3732e+07 350.13 366.26 5.1858 0.69067 0.87923 143.28 6.1051 2.3259 0.0017061
-186.62 3.7339e-08 1.8228e-12 -194.73 -194.73 -1.3736 732.08 0.0013660 -194.73 -194.73 -1.3736 1.3539 1.9166 2129.6 -0.0077546 10073. 0.20765 1.5780e-08 6.3371e+07 350.82 367.14 5.1200 0.69462 0.88317 144.03 5.9178 2.3534 0.0017533
-185.62 5.5322e-08 2.6248e-12 -192.81 -192.81 -1.3516 731.04 0.0013679 -192.81 -192.81 -1.3516 1.3525 1.9174 2122.9 -0.0077498 9276.1 0.20737 2.3112e-08 4.3267e+07 351.52 368.02 5.0561 0.69857 0.88713 144.77 5.7383 2.3808 0.0018007
-184.62 8.1182e-08 3.7428e-12 -190.89 -190.89 -1.3298 730.00 0.0013699 -190.89 -190.89 -1.3298 1.3513 1.9182 2116.1 -0.0077448 8557.8 0.20708 3.3533e-08 2.9821e+07 352.22 368.91 4.9939 0.70253 0.89108 145.51 5.5662 2.4083 0.0018485
-183.62 1.1803e-07 5.2869e-12 -188.97 -188.97 -1.3083 728.96 0.0013718 -188.97 -188.97 -1.3083 1.3501 1.9191 2109.3 -0.0077395 7909.8 0.20678 4.8211e-08 2.0742e+07 352.92 369.81 4.9333 0.70648 0.89504 146.24 5.4011 2.4357 0.0018965
-182.62 1.7009e-07 7.3998e-12 -187.05 -187.05 -1.2869 727.92 0.0013738 -187.05 -187.05 -1.2869 1.3490 1.9201 2102.5 -0.0077340 7324.3 0.20647 6.8704e-08 1.4555e+07 353.63 370.70 4.8744 0.71043 0.89899 146.97 5.2426 2.4632 0.0019448
-181.62 2.4299e-07 1.0266e-11 -185.13 -185.13 -1.2658 726.88 0.0013757 -185.13 -185.13 -1.2658 1.3480 1.9210 2095.7 -0.0077283 6794.5 0.20616 9.7079e-08 1.0301e+07 354.35 371.60 4.8170 0.71438 0.90294 147.69 5.0904 2.4906 0.0019934
-180.62 3.4425e-07 1.4120e-11 -183.21 -183.21 -1.2450 725.85 0.0013777 -183.21 -183.21 -1.2450 1.3470 1.9220 2088.9 -0.0077225 6314.4 0.20584 1.3605e-07 7.3504e+06 355.06 372.51 4.7612 0.71833 0.90688 148.41 4.9442 2.5181 0.0020423
-179.62 4.8378e-07 1.9259e-11 -181.29 -181.29 -1.2243 724.81 0.0013797 -181.29 -181.29 -1.2243 1.3461 1.9231 2082.0 -0.0077164 5878.8 0.20551 1.8915e-07 5.2868e+06 355.78 373.42 4.7068 0.72227 0.91082 149.13 4.8038 2.5456 0.0020915
-178.62 6.7459e-07 2.6057e-11 -179.37 -179.37 -1.2038 723.78 0.0013816 -179.37 -179.37 -1.2038 1.3453 1.9241 2075.2 -0.0077102 5482.9 0.20517 2.6096e-07 3.8320e+06 356.51 374.33 4.6538 0.72620 0.91475 149.84 4.6688 2.5731 0.0021410
-177.62 9.3358e-07 3.4978e-11 -177.44 -177.44 -1.1836 722.75 0.0013836 -177.44 -177.44 -1.1836 1.3445 1.9252 2068.4 -0.0077039 5122.6 0.20483 3.5737e-07 2.7982e+06 357.23 375.25 4.6022 0.73012 0.91867 150.54 4.5390 2.6005 0.0021907
-176.62 1.2826e-06 4.6597e-11 -175.52 -175.52 -1.1635 721.72 0.0013856 -175.52 -175.52 -1.1635 1.3437 1.9263 2061.5 -0.0076973 4794.1 0.20447 4.8588e-07 2.0581e+06 357.97 376.17 4.5519 0.73403 0.92258 151.25 4.4142 2.6280 0.0022408
-175.62 1.7496e-06 6.1615e-11 -173.59 -173.59 -1.1437 720.69 0.0013876 -173.59 -173.59 -1.1437 1.3430 1.9274 2054.7 -0.0076907 4494.3 0.20411 6.5601e-07 1.5244e+06 358.70 377.09 4.5029 0.73792 0.92648 151.95 4.2941 2.6555 0.0022912
-174.62 2.3705e-06 8.0886e-11 -171.66 -171.66 -1.1240 719.66 0.0013895 -171.66 -171.66 -1.1240 1.3423 1.9286 2047.9 -0.0076838 4220.2 0.20375 8.7976e-07 1.1367e+06 359.44 378.02 4.4551 0.74181 0.93036 152.64 4.1784 2.6830 0.0023418
-173.62 3.1903e-06 1.0544e-10 -169.73 -169.73 -1.1045 718.64 0.0013915 -169.73 -169.73 -1.1045 1.3417 1.9298 2041.0 -0.0076769 3969.3 0.20338 1.1721e-06 8.5314e+05 360.19 378.95 4.4085 0.74568 0.93423 153.33 4.0671 2.7105 0.0023928
-172.62 4.2661e-06 1.3651e-10 -167.80 -167.80 -1.0852 717.61 0.0013935 -167.80 -167.80 -1.0852 1.3411 1.9310 2034.2 -0.0076698 3739.3 0.20300 1.5518e-06 6.4441e+05 360.93 379.89 4.3631 0.74953 0.93809 154.02 3.9599 2.7379 0.0024440
-171.62 5.6692e-06 1.7555e-10 -165.87 -165.87 -1.0661 716.58 0.0013955 -165.87 -165.87 -1.0661 1.3405 1.9322 2027.3 -0.0076625 3528.0 0.20261 2.0419e-06 4.8974e+05 361.69 380.83 4.3188 0.75337 0.94193 154.71 3.8566 2.7654 0.0024955
-170.62 7.4884e-06 2.2428e-10 -163.94 -163.94 -1.0472 715.56 0.0013975 -163.94 -163.94 -1.0472 1.3400 1.9334 2020.5 -0.0076552 3333.8 0.20222 2.6708e-06 3.7442e+05 362.44 381.77 4.2755 0.75720 0.94575 155.39 3.7570 2.7929 0.0025473
-169.62 9.8334e-06 2.8472e-10 -162.00 -162.00 -1.0284 714.54 0.0013995 -162.00 -162.00 -1.0284 1.3395 1.9347 2013.6 -0.0076477 3154.9 0.20182 3.4733e-06 2.8791e+05 363.20 382.72 4.2334 0.76100 0.94956 156.07 3.6609 2.8204 0.0025994
-168.62 1.2839e-05 3.5920e-10 -160.07 -160.07 -1.0098 713.52 0.0014015 -160.07 -160.07 -1.0098 1.3390 1.9359 2006.8 -0.0076401 2989.9 0.20141 4.4917e-06 2.2263e+05 363.96 383.67 4.1922 0.76479 0.95335 156.74 3.5683 2.8479 0.0026518
-167.62 1.6672e-05 4.5040e-10 -158.13 -158.13 -0.99134 712.49 0.0014035 -158.13 -158.13 -0.99134 1.3386 1.9372 2000.0 -0.0076323 2837.5 0.20100 5.7771e-06 1.7310e+05 364.73 384.63 4.1521 0.76856 0.95712 157.41 3.4790 2.8754 0.0027045
-166.62 2.1533e-05 5.6137e-10 -156.19 -156.19 -0.97306 711.47 0.0014055 -156.19 -156.19 -0.97306 1.3382 1.9385 1993.1 -0.0076245 2696.5 0.20058 7.3914e-06 1.3529e+05 365.50 385.59 4.1129 0.77232 0.96087 158.08 3.3927 2.9029 0.0027575
-165.62 2.7666e-05 6.9558e-10 -154.25 -154.25 -0.95494 710.45 0.0014075 -154.25 -154.25 -0.95494 1.3378 1.9398 1986.3 -0.0076165 2566.0 0.20016 9.4084e-06 1.0629e+05 366.27 386.55 4.0746 0.77605 0.96460 158.75 3.3095 2.9304 0.0028108
-164.62 3.5367e-05 8.5692e-10 -152.31 -152.31 -0.93698 709.44 0.0014096 -152.31 -152.31 -0.93698 1.3375 1.9411 1979.4 -0.0076084 2444.9 0.19973 1.1916e-05 83918. 367.05 387.52 4.0372 0.77976 0.96832 159.41 3.2291 2.9579 0.0028643
-163.62 4.4989e-05 1.0497e-09 -150.37 -150.37 -0.91917 708.42 0.0014116 -150.37 -150.37 -0.91917 1.3371 1.9424 1972.6 -0.0076002 2332.3 0.19930 1.5020e-05 66577. 367.83 388.49 4.0008 0.78346 0.97201 160.07 3.1514 2.9854 0.0029182
-162.62 5.6956e-05 1.2786e-09 -148.43 -148.43 -0.90151 707.40 0.0014136 -148.43 -148.43 -0.90151 1.3368 1.9437 1965.8 -0.0075919 2227.7 0.19886 1.8844e-05 53068. 368.62 389.46 3.9651 0.78713 0.97569 160.72 3.0764 3.0129 0.0029723
-161.62 7.1773e-05 1.5490e-09 -146.48 -146.48 -0.88400 706.38 0.0014157 -146.48 -146.48 -0.88400 1.3365 1.9451 1959.0 -0.0075834 2130.2 0.19841 2.3533e-05 42494. 369.41 390.44 3.9304 0.79079 0.97935 161.38 3.0038 3.0404 0.0030268
-160.62 9.0036e-05 1.8662e-09 -144.54 -144.54 -0.86663 705.37 0.0014177 -144.54 -144.54 -0.86663 1.3363 1.9465 1952.1 -0.0075748 2039.2 0.19796 2.9258e-05 34178. 370.20 391.42 3.8964 0.79443 0.98298 162.03 2.9337 3.0679 0.0030815
-159.62 0.00011245 2.2362e-09 -142.59 -142.59 -0.84940 704.35 0.0014197 -142.59 -142.59 -0.84940 1.3360 1.9478 1945.3 -0.0075661 1954.2 0.19751 3.6221e-05 27609. 371.00 392.40 3.8632 0.79805 0.98660 162.68 2.8658 3.0955 0.0031365
-158.62 0.00013985 2.6653e-09 -140.64 -140.64 -0.83231 703.34 0.0014218 -140.64 -140.64 -0.83231 1.3358 1.9492 1938.5 -0.0075573 1874.8 0.19705 4.4652e-05 22395. 371.80 393.39 3.8307 0.80164 0.99020 163.32 2.8002 3.1230 0.0031918
-157.62 0.00017320 3.1598e-09 -138.69 -138.69 -0.81536 702.32 0.0014238 -138.69 -138.69 -0.81536 1.3356 1.9506 1931.7 -0.0075484 1800.3 0.19658 5.4822e-05 18241. 372.60 394.38 3.7990 0.80522 0.99378 163.96 2.7367 3.1505 0.0032474
-156.62 0.00021364 3.7262e-09 -136.74 -136.74 -0.79854 701.31 0.0014259 -136.74 -136.74 -0.79854 1.3354 1.9520 1924.9 -0.0075393 1730.5 0.19611 6.7040e-05 14916. 373.41 395.38 3.7680 0.80878 0.99734 164.60 2.6752 3.1780 0.0033033
-155.62 0.00026248 4.3706e-09 -134.79 -134.79 -0.78185 700.30 0.0014280 -134.79 -134.79 -0.78185 1.3352 1.9534 1918.1 -0.0075302 1664.9 0.19564 8.1666e-05 12245. 374.22 396.38 3.7377 0.81232 1.0009 165.24 2.6157 3.2055 0.0033595
-154.62 0.00032125 5.0992e-09 -132.83 -132.83 -0.76530 699.29 0.0014300 -132.83 -132.83 -0.76530 1.3350 1.9548 1911.3 -0.0075209 1603.3 0.19516 9.9109e-05 10090. 375.03 397.38 3.7081 0.81585 1.0044 165.87 2.5580 3.2330 0.0034160
-153.62 0.00039171 5.9173e-09 -130.88 -130.88 -0.74887 698.27 0.0014321 -130.88 -130.88 -0.74887 1.3349 1.9563 1904.5 -0.0075114 1545.3 0.19468 0.00011984 8344.6 375.85 398.39 3.6792 0.81935 1.0079 166.50 2.5022 3.2606 0.0034727
-152.62 0.00047590 6.8293e-09 -128.92 -128.92 -0.73256 697.26 0.0014342 -128.92 -128.92 -0.73256 1.3348 1.9577 1897.8 -0.0075019 1490.6 0.19419 0.00014439 6925.9 376.67 399.40 3.6509 0.82284 1.0114 167.13 2.4481 3.2881 0.0035298
-151.62 0.00057613 7.8384e-09 -126.96 -126.96 -0.71638 696.25 0.0014363 -126.96 -126.96 -0.71638 1.3346 1.9592 1891.0 -0.0074922 1438.9 0.19370 0.00017336 5768.4 377.49 400.41 3.6232 0.82631 1.0149 167.76 2.3957 3.3156 0.0035872
-150.62 0.00069507 8.9461e-09 -125.00 -125.00 -0.70032 695.24 0.0014384 -125.00 -125.00 -0.70032 1.3345 1.9606 1884.2 -0.0074824 1390.2 0.19320 0.00020744 4820.7 378.32 401.42 3.5962 0.82976 1.0183 168.38 2.3448 3.3431 0.0036448
-149.62 0.00083574 1.0151e-08 -123.04 -123.04 -0.68438 694.23 0.0014404 -123.04 -123.04 -0.68438 1.3345 1.9621 1877.4 -0.0074724 1344.0 0.19270 0.00024740 4042.0 379.15 402.44 3.5697 0.83319 1.0218 169.00 2.2956 3.3706 0.0037027
-148.62 0.0010016 1.1451e-08 -121.08 -121.08 -0.66855 693.22 0.0014425 -121.08 -121.08 -0.66855 1.3344 1.9636 1870.7 -0.0074623 1300.3 0.19220 0.00029412 3400.0 379.99 403.47 3.5438 0.83661 1.0252 169.62 2.2478 3.3982 0.0037610
-147.62 0.0011965 1.2836e-08 -119.11 -119.11 -0.65284 692.21 0.0014447 -119.11 -119.11 -0.65284 1.3343 1.9651 1863.9 -0.0074521 1258.9 0.19169 0.00034856 2869.0 380.83 404.49 3.5185 0.84001 1.0286 170.24 2.2014 3.4257 0.0038195
-146.62 0.0014249 1.4296e-08 -117.15 -117.15 -0.63724 691.20 0.0014468 -117.15 -117.15 -0.63724 1.3343 1.9666 1857.2 -0.0074417 1219.6 0.19117 0.00041181 2428.3 381.67 405.52 3.4938 0.84340 1.0320 170.85 2.1565 3.4532 0.0038783
-145.62 0.0016917 1.5813e-08 -115.18 -115.18 -0.62175 690.19 0.0014489 -115.18 -115.18 -0.62175 1.3343 1.9682 1850.4 -0.0074312 1182.3 0.19066 0.00048510 2061.4 382.51 406.56 3.4695 0.84677 1.0353 171.46 2.1128 3.4807 0.0039374
-144.62 0.0020026 1.7363e-08 -113.21 -113.21 -0.60637 689.18 0.0014510 -113.21 -113.21 -0.60637 1.3343 1.9697 1843.7 -0.0074206 1146.8 0.19014 0.00056976 1755.1 383.36 407.59 3.4458 0.85012 1.0387 172.07 2.0705 3.5082 0.0039967
-143.62 0.0023637 1.8915e-08 -111.24 -111.24 -0.59110 688.17 0.0014531 -111.24 -111.24 -0.59110 1.3343 1.9713 1836.9 -0.0074098 1113.0 0.18962 0.00066731 1498.6 384.21 408.63 3.4226 0.85346 1.0420 172.68 2.0294 3.5358 0.0040564
-142.62 0.0027820 2.0428e-08 -109.27 -109.27 -0.57593 687.16 0.0014553 -109.27 -109.27 -0.57593 1.3343 1.9728 1830.2 -0.0073988 1080.8 0.18909 0.00077939 1283.1 385.07 409.68 3.3999 0.85679 1.0454 173.28 1.9896 3.5633 0.0041164
-141.62 0.0032653 2.1851e-08 -107.30 -107.30 -0.56087 686.15 0.0014574 -107.30 -107.30 -0.56087 1.3343 1.9744 1823.5 -0.0073878 1050.1 0.18856 0.00090784 1101.5 385.93 410.72 3.3777 0.86011 1.0487 173.88 1.9508 3.5908 0.0041766
-140.62 0.0038222 2.3119e-08 -105.32 -105.32 -0.54591 685.14 0.0014596 -105.32 -105.32 -0.54591 1.3344 1.9760 1816.7 -0.0073765 1020.7 0.18803 0.0010547 948.16 386.79 411.77 3.3560 0.86341 1.0520 174.48 1.9133 3.6183 0.0042372
-139.62 0.0044623 2.4156e-08 -103.34 -103.34 -0.53105 684.13 0.0014617 -103.34 -103.34 -0.53105 1.3344 1.9776 1810.0 -0.0073651 992.74 0.18749 0.0012221 818.26 387.65 412.83 3.3347 0.86670 1.0553 175.08 1.8768 3.6459 0.0042980
-138.62 0.0051963 2.4869e-08 -101.37 -101.37 -0.51629 683.12 0.0014639 -101.37 -101.37 -0.51629 1.3345 1.9792 1803.3 -0.0073536 965.97 0.18695 0.0014125 707.94 388.52 413.88 3.3139 0.86998 1.0586 175.67 1.8413 3.6734 0.0043592
-137.62 0.0060358 2.5143e-08 -99.386 -99.386 -0.50162 682.11 0.0014660 -99.386 -99.386 -0.50162 1.3346 1.9808 1796.6 -0.0073419 940.35 0.18641 0.0016287 614.00 389.39 414.94 3.2935 0.87325 1.0619 176.26 1.8069 3.7009 0.0044206
-136.62 0.0069938 2.4847e-08 -97.404 -97.404 -0.48705 681.10 0.0014682 -97.404 -97.404 -0.48705 1.3347 1.9825 1789.9 -0.0073301 915.81 0.18586 0.0018733 533.80 390.26 416.00 3.2735 0.87650 1.0651 176.85 1.7734 3.7284 0.0044823
-135.62 0.0080843 2.3825e-08 -95.421 -95.421 -0.47258 680.09 0.0014704 -95.421 -95.421 -0.47258 1.3348 1.9841 1783.2 -0.0073180 892.30 0.18531 0.0021497 465.17 391.14 417.07 3.2540 0.87975 1.0684 177.44 1.7409 3.7559 0.0045443
-134.62 0.0093230 2.1892e-08 -93.436 -93.436 -0.45820 679.08 0.0014726 -93.436 -93.436 -0.45820 1.3350 1.9858 1776.5 -0.0073059 869.75 0.18476 0.0024613 406.30 392.02 418.14 3.2348 0.88299 1.0716 178.02 1.7093 3.7834 0.0046066
-133.62 0.010727 1.8837e-08 -91.450 -91.449 -0.44391 678.07 0.0014748 -91.450 -91.449 -0.44391 1.3351 1.9875 1769.8 -0.0072935 848.11 0.18421 0.0028116 355.67 392.91 419.21 3.2161 0.88622 1.0749 178.61 1.6786 3.8109 0.0046691
-132.62 0.012315 1.4414e-08 -89.461 -89.461 -0.42971 677.06 0.0014770 -89.461 -89.461 -0.42971 1.3353 1.9892 1763.1 -0.0072810 827.32 0.18365 0.0032049 312.03 393.79 420.29 3.1977 0.88944 1.0781 179.19 1.6488 3.8385 0.0047320
-131.62 0.014106 8.3405e-09 -87.471 -87.471 -0.41560 676.04 0.0014792 -87.471 -87.471 -0.41560 1.3354 1.9909 1756.4 -0.0072684 807.34 0.18309 0.0036453 274.33 394.68 421.36 3.1798 0.89266 1.0813 179.76 1.6197 3.8660 0.0047951
-130.62 0.016124 2.9504e-10 -85.479 -85.479 -0.40157 675.03 0.0014814 -85.479 -85.479 -0.40157 1.3356 1.9926 1749.7 -0.0072555 788.12 0.18253 0.0041375 241.69 395.58 422.44 3.1622 0.89586 1.0846 180.34 1.5915 3.8935 0.0048586
-129.62 290.94 undefined -84.122 -81.150 -0.39208 675.00 0.0014815 -84.122 -81.150 -0.39208 1.3378 1.9923 1752.0 -0.0072586 782.07 0.18275 675.00 0.0014815 -84.122 -81.150 -0.39208 1.3378 1.9923 1752.0 -0.0072586 782.07 0.18275
-128.62 590.61 undefined -82.783 -76.750 -0.38278 675.00 0.0014815 -82.783 -76.750 -0.38278 1.3400 1.9918 1754.6 -0.0072621 776.55 0.18300 675.00 0.0014815 -82.783 -76.750 -0.38278 1.3400 1.9918 1754.6 -0.0072621 776.55 0.18300
-127.62 889.35 undefined -81.442 -72.357 -0.37353 675.00 0.0014815 -81.442 -72.357 -0.37353 1.3423 1.9914 1757.1 -0.0072654 771.14 0.18326 675.00 0.0014815 -81.442 -72.357 -0.37353 1.3423 1.9914 1757.1 -0.0072654 771.14 0.18326
-126.62 1187.2 undefined -80.098 -67.972 -0.36433 675.00 0.0014815 -80.098 -67.972 -0.36433 1.3445 1.9911 1759.7 -0.0072686 765.83 0.18351 675.00 0.0014815 -80.098 -67.972 -0.36433 1.3445 1.9911 1759.7 -0.0072686 765.83 0.18351
-125.62 1484.1 undefined -78.752 -63.593 -0.35518 675.00 0.0014815 -78.752 -63.593 -0.35518 1.3468 1.9908 1762.3 -0.0072717 760.63 0.18376 675.00 0.0014815 -78.752 -63.593 -0.35518 1.3468 1.9908 1762.3 -0.0072717 760.63 0.18376
-124.62 1780.2 undefined -77.405 -59.221 -0.34608 675.00 0.0014815 -77.405 -59.221 -0.34608 1.3490 1.9905 1764.8 -0.0072746 755.52 0.18402 675.00 0.0014815 -77.405 -59.221 -0.34608 1.3490 1.9905 1764.8 -0.0072746 755.52 0.18402
-123.62 2075.3 undefined -76.054 -54.856 -0.33702 675.00 0.0014815 -76.054 -54.856 -0.33702 1.3513 1.9902 1767.3 -0.0072773 750.51 0.18427 675.00 0.0014815 -76.054 -54.856 -0.33702 1.3513 1.9902 1767.3 -0.0072773 750.51 0.18427
-122.62 2369.6 undefined -74.702 -50.498 -0.32800 675.00 0.0014815 -74.702 -50.498 -0.32800 1.3535 1.9900 1769.9 -0.0072800 745.60 0.18452 675.00 0.0014815 -74.702 -50.498 -0.32800 1.3535 1.9900 1769.9 -0.0072800 745.60 0.18452
-121.62 2663.0 undefined -73.347 -46.146 -0.31903 675.00 0.0014815 -73.347 -46.146 -0.31903 1.3557 1.9898 1772.4 -0.0072825 740.77 0.18478 675.00 0.0014815 -73.347 -46.146 -0.31903 1.3557 1.9898 1772.4 -0.0072825 740.77 0.18478
-120.62 2955.6 undefined -71.991 -41.801 -0.31011 675.00 0.0014815 -71.991 -41.801 -0.31011 1.3580 1.9896 1774.9 -0.0072848 736.04 0.18503 675.00 0.0014815 -71.991 -41.801 -0.31011 1.3580 1.9896 1774.9 -0.0072848 736.04 0.18503
-119.62 3247.3 undefined -70.631 -37.462 -0.30123 675.00 0.0014815 -70.631 -37.462 -0.30123 1.3602 1.9895 1777.4 -0.0072871 731.39 0.18528 675.00 0.0014815 -70.631 -37.462 -0.30123 1.3602 1.9895 1777.4 -0.0072871 731.39 0.18528
-118.62 3538.1 undefined -69.270 -33.130 -0.29239 675.00 0.0014815 -69.270 -33.130 -0.29239 1.3625 1.9894 1779.8 -0.0072891 726.83 0.18554 675.00 0.0014815 -69.270 -33.130 -0.29239 1.3625 1.9894 1779.8 -0.0072891 726.83 0.18554
-117.62 3828.2 undefined -67.906 -28.804 -0.28359 675.00 0.0014815 -67.906 -28.804 -0.28359 1.3648 1.9893 1782.3 -0.0072911 722.35 0.18579 675.00 0.0014815 -67.906 -28.804 -0.28359 1.3648 1.9893 1782.3 -0.0072911 722.35 0.18579
-116.62 4117.4 undefined -66.541 -24.484 -0.27484 675.00 0.0014815 -66.541 -24.484 -0.27484 1.3670 1.9893 1784.7 -0.0072929 717.95 0.18605 675.00 0.0014815 -66.541 -24.484 -0.27484 1.3670 1.9893 1784.7 -0.0072929 717.95 0.18605
-115.62 4405.8 undefined -65.172 -20.170 -0.26612 675.00 0.0014815 -65.172 -20.170 -0.26612 1.3693 1.9893 1787.1 -0.0072946 713.64 0.18631 675.00 0.0014815 -65.172 -20.170 -0.26612 1.3693 1.9893 1787.1 -0.0072946 713.64 0.18631
-114.62 4693.3 undefined -63.802 -15.862 -0.25745 675.00 0.0014815 -63.802 -15.862 -0.25745 1.3716 1.9893 1789.6 -0.0072961 709.40 0.18656 675.00 0.0014815 -63.802 -15.862 -0.25745 1.3716 1.9893 1789.6 -0.0072961 709.40 0.18656
-113.62 4980.1 undefined -62.429 -11.560 -0.24882 675.00 0.0014815 -62.429 -11.560 -0.24882 1.3738 1.9893 1792.0 -0.0072975 705.23 0.18682 675.00 0.0014815 -62.429 -11.560 -0.24882 1.3738 1.9893 1792.0 -0.0072975 705.23 0.18682
-112.62 5266.1 undefined -61.054 -7.2643 -0.24023 675.00 0.0014815 -61.054 -7.2643 -0.24023 1.3761 1.9894 1794.3 -0.0072988 701.14 0.18707 675.00 0.0014815 -61.054 -7.2643 -0.24023 1.3761 1.9894 1794.3 -0.0072988 701.14 0.18707
-111.62 5551.3 undefined -59.677 -2.9740 -0.23167 675.00 0.0014815 -59.677 -2.9740 -0.23167 1.3784 1.9895 1796.7 -0.0072999 697.12 0.18733 675.00 0.0014815 -59.677 -2.9740 -0.23167 1.3784 1.9895 1796.7 -0.0072999 697.12 0.18733
-110.62 5835.6 undefined -58.297 1.3105 -0.22316 675.00 0.0014815 -58.297 1.3105 -0.22316 1.3807 1.9897 1799.1 -0.0073009 693.18 0.18759 675.00 0.0014815 -58.297 1.3105 -0.22316 1.3807 1.9897 1799.1 -0.0073009 693.18 0.18759
-109.62 6119.3 undefined -56.916 5.5893 -0.21468 675.00 0.0014815 -56.916 5.5893 -0.21468 1.3831 1.9899 1801.4 -0.0073018 689.30 0.18785 675.00 0.0014815 -56.916 5.5893 -0.21468 1.3831 1.9899 1801.4 -0.0073018 689.30 0.18785
-108.62 6402.1 undefined -55.531 9.8626 -0.20624 675.00 0.0014815 -55.531 9.8626 -0.20624 1.3854 1.9901 1803.7 -0.0073025 685.49 0.18810 675.00 0.0014815 -55.531 9.8626 -0.20624 1.3854 1.9901 1803.7 -0.0073025 685.49 0.18810
-107.62 6684.2 undefined -54.145 14.130 -0.19784 675.00 0.0014815 -54.145 14.130 -0.19784 1.3877 1.9903 1806.0 -0.0073031 681.74 0.18836 675.00 0.0014815 -54.145 14.130 -0.19784 1.3877 1.9903 1806.0 -0.0073031 681.74 0.18836
-106.62 6965.5 undefined -52.756 18.393 -0.18948 675.00 0.0014815 -52.756 18.393 -0.18948 1.3901 1.9906 1808.3 -0.0073036 678.06 0.18862 675.00 0.0014815 -52.756 18.393 -0.18948 1.3901 1.9906 1808.3 -0.0073036 678.06 0.18862
-105.62 7246.1 undefined -51.365 22.650 -0.18115 675.00 0.0014815 -51.365 22.650 -0.18115 1.3924 1.9909 1810.6 -0.0073040 674.44 0.18888 675.00 0.0014815 -51.365 22.650 -0.18115 1.3924 1.9909 1810.6 -0.0073040 674.44 0.18888
-104.62 7525.9 undefined -49.971 26.902 -0.17285 675.00 0.0014815 -49.971 26.902 -0.17285 1.3948 1.9912 1812.9 -0.0073042 670.89 0.18914 675.00 0.0014815 -49.971 26.902 -0.17285 1.3948 1.9912 1812.9 -0.0073042 670.89 0.18914
