Temperature (C) Pressure (psia) Quality (l+v) Internal Energy (l+v, kJ/kg) Enthalpy (l+v, kJ/kg) Entropy (l+v, J/g*K) Density (l, kg/m3) Volume (l, m3/kg) Internal Energy (l, kJ/kg) Enthalpy (l, kJ/kg) Entropy (l, J/g*K) Cv (l, J/g*K) Cp (l, J/g*K) Sound Spd. (l, m/s) Joule-Thomson (l, F/psia) Viscosity (l, uPa*s) Therm. Cond. (l, W/m*K) Density (v, kg/m3) Volume (v, m3/kg) Internal Energy (v, kJ/kg) Enthalpy (v, kJ/kg) Entropy (v, J/g*K) Cv (v, J/g*K) Cp (v, J/g*K) Sound Spd. (v, m/s) Joule-Thomson (v, F/psia) Viscosity (v, uPa*s) Therm. Cond. (v, W/m*K)
-187.62 2.4953e-08 1.0224e-12 -196.64 -196.64 -1.3959 733.13 0.0013640 -196.64 -196.64 -1.3959 1.3553 1.9158 2136.4 -0.0077592 10960. 0.20792 1.0669e-08 9.3732e+07 350.13 366.26 5.1858 0.69067 0.87923 143.28 6.1051 2.3259 0.0017061
-186.62 3.7339e-08 1.4815e-12 -194.73 -194.73 -1.3736 732.08 0.0013660 -194.73 -194.73 -1.3736 1.3539 1.9166 2129.6 -0.0077546 10073. 0.20765 1.5780e-08 6.3371e+07 350.82 367.14 5.1200 0.69462 0.88317 144.03 5.9178 2.3534 0.0017533
-185.62 5.5322e-08 2.1249e-12 -192.81 -192.81 -1.3516 731.04 0.0013679 -192.81 -192.81 -1.3516 1.3525 1.9174 2122.9 -0.0077498 9276.1 0.20737 2.3112e-08 4.3267e+07 351.52 368.02 5.0561 0.69857 0.88713 144.77 5.7383 2.3808 0.0018007
-184.62 8.1182e-08 3.0176e-12 -190.89 -190.89 -1.3298 730.00 0.0013699 -190.89 -190.89 -1.3298 1.3513 1.9182 2116.1 -0.0077448 8557.8 0.20708 3.3533e-08 2.9821e+07 352.22 368.91 4.9939 0.70253 0.89108 145.51 5.5662 2.4083 0.0018485
-183.62 1.1803e-07 4.2442e-12 -188.97 -188.97 -1.3083 728.96 0.0013718 -188.97 -188.97 -1.3083 1.3501 1.9191 2109.3 -0.0077395 7909.8 0.20678 4.8211e-08 2.0742e+07 352.92 369.81 4.9333 0.70648 0.89504 146.24 5.4011 2.4357 0.0018965
-182.62 1.7009e-07 5.9139e-12 -187.05 -187.05 -1.2869 727.92 0.0013738 -187.05 -187.05 -1.2869 1.3490 1.9201 2102.5 -0.0077340 7324.3 0.20647 6.8704e-08 1.4555e+07 353.63 370.70 4.8744 0.71043 0.89899 146.97 5.2426 2.4632 0.0019448
-181.62 2.4299e-07 8.1661e-12 -185.13 -185.13 -1.2658 726.88 0.0013757 -185.13 -185.13 -1.2658 1.3480 1.9210 2095.7 -0.0077283 6794.5 0.20616 9.7079e-08 1.0301e+07 354.35 371.60 4.8170 0.71438 0.90294 147.69 5.0904 2.4906 0.0019934
-180.62 3.4425e-07 1.1177e-11 -183.21 -183.21 -1.2450 725.85 0.0013777 -183.21 -183.21 -1.2450 1.3470 1.9220 2088.9 -0.0077225 6314.4 0.20584 1.3605e-07 7.3504e+06 355.06 372.51 4.7612 0.71833 0.90688 148.41 4.9442 2.5181 0.0020423
-179.62 4.8378e-07 1.5168e-11 -181.29 -181.29 -1.2243 724.81 0.0013797 -181.29 -181.29 -1.2243 1.3461 1.9231 2082.0 -0.0077164 5878.8 0.20551 1.8915e-07 5.2868e+06 355.78 373.42 4.7068 0.72227 0.91082 149.13 4.8038 2.5456 0.0020915
-178.62 6.7459e-07 2.0413e-11 -179.37 -179.37 -1.2038 723.78 0.0013816 -179.37 -179.37 -1.2038 1.3453 1.9241 2075.2 -0.0077102 5482.9 0.20517 2.6096e-07 3.8320e+06 356.51 374.33 4.6538 0.72620 0.91475 149.84 4.6688 2.5731 0.0021410
-177.62 9.3358e-07 2.7249e-11 -177.44 -177.44 -1.1836 722.75 0.0013836 -177.44 -177.44 -1.1836 1.3445 1.9252 2068.4 -0.0077039 5122.6 0.20483 3.5737e-07 2.7982e+06 357.23 375.25 4.6022 0.73012 0.91867 150.54 4.5390 2.6005 0.0021907
-176.62 1.2826e-06 3.6088e-11 -175.52 -175.52 -1.1635 721.72 0.0013856 -175.52 -175.52 -1.1635 1.3437 1.9263 2061.5 -0.0076973 4794.1 0.20447 4.8588e-07 2.0581e+06 357.97 376.17 4.5519 0.73403 0.92258 151.25 4.4142 2.6280 0.0022408
-175.62 1.7496e-06 4.7427e-11 -173.59 -173.59 -1.1437 720.69 0.0013876 -173.59 -173.59 -1.1437 1.3430 1.9274 2054.7 -0.0076907 4494.3 0.20411 6.5601e-07 1.5244e+06 358.70 377.09 4.5029 0.73792 0.92648 151.95 4.2941 2.6555 0.0022912
-174.62 2.3705e-06 6.1859e-11 -171.66 -171.66 -1.1240 719.66 0.0013895 -171.66 -171.66 -1.1240 1.3423 1.9286 2047.9 -0.0076838 4220.2 0.20375 8.7976e-07 1.1367e+06 359.44 378.02 4.4551 0.74181 0.93036 152.64 4.1784 2.6830 0.0023418
-173.62 3.1903e-06 8.0089e-11 -169.73 -169.73 -1.1045 718.64 0.0013915 -169.73 -169.73 -1.1045 1.3417 1.9298 2041.0 -0.0076769 3969.3 0.20338 1.1721e-06 8.5314e+05 360.19 378.95 4.4085 0.74568 0.93423 153.33 4.0671 2.7105 0.0023928
-172.62 4.2661e-06 1.0294e-10 -167.80 -167.80 -1.0852 717.61 0.0013935 -167.80 -167.80 -1.0852 1.3411 1.9310 2034.2 -0.0076698 3739.3 0.20300 1.5518e-06 6.4441e+05 360.93 379.89 4.3631 0.74953 0.93809 154.02 3.9599 2.7379 0.0024440
-171.62 5.6692e-06 1.3139e-10 -165.87 -165.87 -1.0661 716.58 0.0013955 -165.87 -165.87 -1.0661 1.3405 1.9322 2027.3 -0.0076625 3528.0 0.20261 2.0419e-06 4.8974e+05 361.69 380.83 4.3188 0.75337 0.94193 154.71 3.8566 2.7654 0.0024955
-170.62 7.4884e-06 1.6652e-10 -163.94 -163.94 -1.0472 715.56 0.0013975 -163.94 -163.94 -1.0472 1.3400 1.9334 2020.5 -0.0076552 3333.8 0.20222 2.6708e-06 3.7442e+05 362.44 381.77 4.2755 0.75720 0.94575 155.39 3.7570 2.7929 0.0025473
-169.62 9.8334e-06 2.0960e-10 -162.00 -162.00 -1.0284 714.54 0.0013995 -162.00 -162.00 -1.0284 1.3395 1.9347 2013.6 -0.0076477 3154.9 0.20182 3.4733e-06 2.8791e+05 363.20 382.72 4.2334 0.76100 0.94956 156.07 3.6609 2.8204 0.0025994
-168.62 1.2839e-05 2.6206e-10 -160.07 -160.07 -1.0098 713.52 0.0014015 -160.07 -160.07 -1.0098 1.3390 1.9359 2006.8 -0.0076401 2989.9 0.20141 4.4917e-06 2.2263e+05 363.96 383.67 4.1922 0.76479 0.95335 156.74 3.5683 2.8479 0.0026518
-167.62 1.6672e-05 3.2545e-10 -158.13 -158.13 -0.99134 712.49 0.0014035 -158.13 -158.13 -0.99134 1.3386 1.9372 2000.0 -0.0076323 2837.5 0.20100 5.7771e-06 1.7310e+05 364.73 384.63 4.1521 0.76856 0.95712 157.41 3.4790 2.8754 0.0027045
-166.62 2.1533e-05 4.0151e-10 -156.19 -156.19 -0.97306 711.47 0.0014055 -156.19 -156.19 -0.97306 1.3382 1.9385 1993.1 -0.0076245 2696.5 0.20058 7.3914e-06 1.3529e+05 365.50 385.59 4.1129 0.77232 0.96087 158.08 3.3927 2.9029 0.0027575
-165.62 2.7666e-05 4.9210e-10 -154.25 -154.25 -0.95494 710.45 0.0014075 -154.25 -154.25 -0.95494 1.3378 1.9398 1986.3 -0.0076165 2566.0 0.20016 9.4084e-06 1.0629e+05 366.27 386.55 4.0746 0.77605 0.96460 158.75 3.3095 2.9304 0.0028108
-164.62 3.5367e-05 5.9920e-10 -152.31 -152.31 -0.93698 709.44 0.0014096 -152.31 -152.31 -0.93698 1.3375 1.9411 1979.4 -0.0076084 2444.9 0.19973 1.1916e-05 83918. 367.05 387.52 4.0372 0.77976 0.96832 159.41 3.2291 2.9579 0.0028643
-163.62 4.4989e-05 7.2484e-10 -150.37 -150.37 -0.91917 708.42 0.0014116 -150.37 -150.37 -0.91917 1.3371 1.9424 1972.6 -0.0076002 2332.3 0.19930 1.5020e-05 66577. 367.83 388.49 4.0008 0.78346 0.97201 160.07 3.1514 2.9854 0.0029182
-162.62 5.6956e-05 8.7111e-10 -148.43 -148.43 -0.90151 707.40 0.0014136 -148.43 -148.43 -0.90151 1.3368 1.9437 1965.8 -0.0075919 2227.7 0.19886 1.8844e-05 53068. 368.62 389.46 3.9651 0.78713 0.97569 160.72 3.0764 3.0129 0.0029723
-161.62 7.1773e-05 1.0400e-09 -146.48 -146.48 -0.88400 706.38 0.0014157 -146.48 -146.48 -0.88400 1.3365 1.9451 1959.0 -0.0075834 2130.2 0.19841 2.3533e-05 42494. 369.41 390.44 3.9304 0.79079 0.97935 161.38 3.0038 3.0404 0.0030268
-160.62 9.0036e-05 1.2334e-09 -144.54 -144.54 -0.86663 705.37 0.0014177 -144.54 -144.54 -0.86663 1.3363 1.9465 1952.1 -0.0075748 2039.2 0.19796 2.9258e-05 34178. 370.20 391.42 3.8964 0.79443 0.98298 162.03 2.9337 3.0679 0.0030815
-159.62 0.00011245 1.4529e-09 -142.59 -142.59 -0.84940 704.35 0.0014197 -142.59 -142.59 -0.84940 1.3360 1.9478 1945.3 -0.0075661 1954.2 0.19751 3.6221e-05 27609. 371.00 392.40 3.8632 0.79805 0.98660 162.68 2.8658 3.0955 0.0031365
-158.62 0.00013985 1.6996e-09 -140.64 -140.64 -0.83231 703.34 0.0014218 -140.64 -140.64 -0.83231 1.3358 1.9492 1938.5 -0.0075573 1874.8 0.19705 4.4652e-05 22395. 371.80 393.39 3.8307 0.80164 0.99020 163.32 2.8002 3.1230 0.0031918
-157.62 0.00017320 1.9742e-09 -138.69 -138.69 -0.81536 702.32 0.0014238 -138.69 -138.69 -0.81536 1.3356 1.9506 1931.7 -0.0075484 1800.3 0.19658 5.4822e-05 18241. 372.60 394.38 3.7990 0.80522 0.99378 163.96 2.7367 3.1505 0.0032474
-156.62 0.00021364 2.2762e-09 -136.74 -136.74 -0.79854 701.31 0.0014259 -136.74 -136.74 -0.79854 1.3354 1.9520 1924.9 -0.0075393 1730.5 0.19611 6.7040e-05 14916. 373.41 395.38 3.7680 0.80878 0.99734 164.60 2.6752 3.1780 0.0033033
-155.62 0.00026248 2.6044e-09 -134.79 -134.79 -0.78185 700.30 0.0014280 -134.79 -134.79 -0.78185 1.3352 1.9534 1918.1 -0.0075302 1664.9 0.19564 8.1666e-05 12245. 374.22 396.38 3.7377 0.81232 1.0009 165.24 2.6157 3.2055 0.0033595
-154.62 0.00032125 2.9557e-09 -132.83 -132.83 -0.76530 699.29 0.0014300 -132.83 -132.83 -0.76530 1.3350 1.9548 1911.3 -0.0075209 1603.3 0.19516 9.9109e-05 10090. 375.03 397.38 3.7081 0.81585 1.0044 165.87 2.5580 3.2330 0.0034160
-153.62 0.00039171 3.3255e-09 -130.88 -130.88 -0.74887 698.27 0.0014321 -130.88 -130.88 -0.74887 1.3349 1.9563 1904.5 -0.0075114 1545.3 0.19468 0.00011984 8344.6 375.85 398.39 3.6792 0.81935 1.0079 166.50 2.5022 3.2606 0.0034727
-152.62 0.00047590 3.7066e-09 -128.92 -128.92 -0.73256 697.26 0.0014342 -128.92 -128.92 -0.73256 1.3348 1.9577 1897.8 -0.0075019 1490.6 0.19419 0.00014439 6925.9 376.67 399.40 3.6509 0.82284 1.0114 167.13 2.4481 3.2881 0.0035298
-151.62 0.00057613 4.0892e-09 -126.96 -126.96 -0.71638 696.25 0.0014363 -126.96 -126.96 -0.71638 1.3346 1.9592 1891.0 -0.0074922 1438.9 0.19370 0.00017336 5768.4 377.49 400.41 3.6232 0.82631 1.0149 167.76 2.3957 3.3156 0.0035872
-150.62 0.00069507 4.4598e-09 -125.00 -125.00 -0.70032 695.24 0.0014384 -125.00 -125.00 -0.70032 1.3345 1.9606 1884.2 -0.0074824 1390.2 0.19320 0.00020744 4820.7 378.32 401.42 3.5962 0.82976 1.0183 168.38 2.3448 3.3431 0.0036448
-149.62 0.00083574 4.8008e-09 -123.04 -123.04 -0.68438 694.23 0.0014404 -123.04 -123.04 -0.68438 1.3345 1.9621 1877.4 -0.0074724 1344.0 0.19270 0.00024740 4042.0 379.15 402.44 3.5697 0.83319 1.0218 169.00 2.2956 3.3706 0.0037027
-148.62 0.0010016 5.0897e-09 -121.08 -121.08 -0.66855 693.22 0.0014425 -121.08 -121.08 -0.66855 1.3344 1.9636 1870.7 -0.0074623 1300.3 0.19220 0.00029412 3400.0 379.99 403.47 3.5438 0.83661 1.0252 169.62 2.2478 3.3982 0.0037610
-147.62 0.0011965 5.2978e-09 -119.11 -119.11 -0.65284 692.21 0.0014447 -119.11 -119.11 -0.65284 1.3343 1.9651 1863.9 -0.0074521 1258.9 0.19169 0.00034856 2869.0 380.83 404.49 3.5185 0.84001 1.0286 170.24 2.2014 3.4257 0.0038195
-146.62 0.0014249 5.3897e-09 -117.15 -117.15 -0.63724 691.20 0.0014468 -117.15 -117.15 -0.63724 1.3343 1.9666 1857.2 -0.0074417 1219.6 0.19117 0.00041181 2428.3 381.67 405.52 3.4938 0.84340 1.0320 170.85 2.1565 3.4532 0.0038783
-145.62 0.0016917 5.3218e-09 -115.18 -115.18 -0.62175 690.19 0.0014489 -115.18 -115.18 -0.62175 1.3343 1.9682 1850.4 -0.0074312 1182.3 0.19066 0.00048510 2061.4 382.51 406.56 3.4695 0.84677 1.0353 171.46 2.1128 3.4807 0.0039374
-144.62 0.0020026 5.0409e-09 -113.21 -113.21 -0.60637 689.18 0.0014510 -113.21 -113.21 -0.60637 1.3343 1.9697 1843.7 -0.0074206 1146.8 0.19014 0.00056976 1755.1 383.36 407.59 3.4458 0.85012 1.0387 172.07 2.0705 3.5082 0.0039967
-143.62 0.0023637 4.4831e-09 -111.24 -111.24 -0.59110 688.17 0.0014531 -111.24 -111.24 -0.59110 1.3343 1.9713 1836.9 -0.0074098 1113.0 0.18962 0.00066731 1498.6 384.21 408.63 3.4226 0.85346 1.0420 172.68 2.0294 3.5358 0.0040564
-142.62 0.0027820 3.5718e-09 -109.27 -109.27 -0.57593 687.16 0.0014553 -109.27 -109.27 -0.57593 1.3343 1.9728 1830.2 -0.0073988 1080.8 0.18909 0.00077939 1283.1 385.07 409.68 3.3999 0.85679 1.0454 173.28 1.9896 3.5633 0.0041164
-141.62 0.0032653 2.2162e-09 -107.30 -107.30 -0.56087 686.15 0.0014574 -107.30 -107.30 -0.56087 1.3343 1.9744 1823.5 -0.0073878 1050.1 0.18856 0.00090784 1101.5 385.93 410.72 3.3777 0.86011 1.0487 173.88 1.9508 3.5908 0.0041766
-140.62 0.0038222 3.0924e-10 -105.32 -105.32 -0.54591 685.14 0.0014596 -105.32 -105.32 -0.54591 1.3344 1.9760 1816.7 -0.0073765 1020.7 0.18803 0.0010547 948.16 386.79 411.77 3.3560 0.86341 1.0520 174.48 1.9133 3.6183 0.0042372
-139.62 281.22 undefined -103.90 -101.07 -0.53521 685.00 0.0014599 -103.90 -101.07 -0.53521 1.3363 1.9759 1818.1 -0.0073769 1008.6 0.18819 685.00 0.0014599 -103.90 -101.07 -0.53521 1.3363 1.9759 1818.1 -0.0073769 1008.6 0.18819
-138.62 605.80 undefined -102.56 -96.464 -0.52523 685.00 0.0014599 -102.56 -96.464 -0.52523 1.3385 1.9757 1820.8 -0.0073790 999.23 0.18847 685.00 0.0014599 -102.56 -96.464 -0.52523 1.3385 1.9757 1820.8 -0.0073790 999.23 0.18847
-137.62 929.31 undefined -101.22 -91.868 -0.51531 685.00 0.0014599 -101.22 -91.868 -0.51531 1.3407 1.9754 1823.4 -0.0073810 990.09 0.18875 685.00 0.0014599 -101.22 -91.868 -0.51531 1.3407 1.9754 1823.4 -0.0073810 990.09 0.18875
-136.62 1251.7 undefined -99.880 -87.281 -0.50545 685.00 0.0014599 -99.880 -87.281 -0.50545 1.3429 1.9752 1826.0 -0.0073829 981.17 0.18902 685.00 0.0014599 -99.880 -87.281 -0.50545 1.3429 1.9752 1826.0 -0.0073829 981.17 0.18902
-135.62 1573.1 undefined -98.536 -82.702 -0.49564 685.00 0.0014599 -98.536 -82.702 -0.49564 1.3451 1.9749 1828.6 -0.0073847 972.46 0.18930 685.00 0.0014599 -98.536 -82.702 -0.49564 1.3451 1.9749 1828.6 -0.0073847 972.46 0.18930
-134.62 1893.5 undefined -97.190 -78.131 -0.48588 685.00 0.0014599 -97.190 -78.131 -0.48588 1.3473 1.9748 1831.2 -0.0073863 963.95 0.18958 685.00 0.0014599 -97.190 -78.131 -0.48588 1.3473 1.9748 1831.2 -0.0073863 963.95 0.18958
-133.62 2212.8 undefined -95.841 -73.569 -0.47619 685.00 0.0014599 -95.841 -73.569 -0.47619 1.3495 1.9746 1833.8 -0.0073879 955.64 0.18986 685.00 0.0014599 -95.841 -73.569 -0.47619 1.3495 1.9746 1833.8 -0.0073879 955.64 0.18986
-132.62 2531.1 undefined -94.491 -69.014 -0.46654 685.00 0.0014599 -94.491 -69.014 -0.46654 1.3517 1.9745 1836.4 -0.0073894 947.51 0.19014 685.00 0.0014599 -94.491 -69.014 -0.46654 1.3517 1.9745 1836.4 -0.0073894 947.51 0.19014
-131.62 2848.4 undefined -93.138 -64.468 -0.45695 685.00 0.0014599 -93.138 -64.468 -0.45695 1.3538 1.9744 1839.0 -0.0073907 939.57 0.19041 685.00 0.0014599 -93.138 -64.468 -0.45695 1.3538 1.9744 1839.0 -0.0073907 939.57 0.19041
-130.62 3164.7 undefined -91.783 -59.929 -0.44741 685.00 0.0014599 -91.783 -59.929 -0.44741 1.3560 1.9743 1841.5 -0.0073920 931.80 0.19069 685.00 0.0014599 -91.783 -59.929 -0.44741 1.3560 1.9743 1841.5 -0.0073920 931.80 0.19069
-129.62 3480.0 undefined -90.426 -55.398 -0.43792 685.00 0.0014599 -90.426 -55.398 -0.43792 1.3582 1.9742 1844.1 -0.0073931 924.20 0.19097 685.00 0.0014599 -90.426 -55.398 -0.43792 1.3582 1.9742 1844.1 -0.0073931 924.20 0.19097
-128.62 3794.4 undefined -89.067 -50.875 -0.42848 685.00 0.0014599 -89.067 -50.875 -0.42848 1.3604 1.9742 1846.6 -0.0073941 916.77 0.19125 685.00 0.0014599 -89.067 -50.875 -0.42848 1.3604 1.9742 1846.6 -0.0073941 916.77 0.19125
-127.62 4107.7 undefined -87.705 -46.359 -0.41909 685.00 0.0014599 -87.705 -46.359 -0.41909 1.3625 1.9742 1849.1 -0.0073951 909.50 0.19153 685.00 0.0014599 -87.705 -46.359 -0.41909 1.3625 1.9742 1849.1 -0.0073951 909.50 0.19153
-126.62 4420.2 undefined -86.342 -41.851 -0.40976 685.00 0.0014599 -86.342 -41.851 -0.40976 1.3647 1.9742 1851.6 -0.0073959 902.39 0.19181 685.00 0.0014599 -86.342 -41.851 -0.40976 1.3647 1.9742 1851.6 -0.0073959 902.39 0.19181
-125.62 4731.6 undefined -84.976 -37.350 -0.40047 685.00 0.0014599 -84.976 -37.350 -0.40047 1.3669 1.9742 1854.1 -0.0073966 895.43 0.19209 685.00 0.0014599 -84.976 -37.350 -0.40047 1.3669 1.9742 1854.1 -0.0073966 895.43 0.19209
-124.62 5042.2 undefined -83.608 -32.857 -0.39122 685.00 0.0014599 -83.608 -32.857 -0.39122 1.3691 1.9743 1856.6 -0.0073972 888.62 0.19238 685.00 0.0014599 -83.608 -32.857 -0.39122 1.3691 1.9743 1856.6 -0.0073972 888.62 0.19238
-123.62 5351.8 undefined -82.238 -28.370 -0.38203 685.00 0.0014599 -82.238 -28.370 -0.38203 1.3713 1.9744 1859.1 -0.0073978 881.94 0.19266 685.00 0.0014599 -82.238 -28.370 -0.38203 1.3713 1.9744 1859.1 -0.0073978 881.94 0.19266
-122.62 5660.4 undefined -80.865 -23.891 -0.37288 685.00 0.0014599 -80.865 -23.891 -0.37288 1.3735 1.9745 1861.5 -0.0073982 875.41 0.19294 685.00 0.0014599 -80.865 -23.891 -0.37288 1.3735 1.9745 1861.5 -0.0073982 875.41 0.19294
-121.62 5968.2 undefined -79.491 -19.419 -0.36378 685.00 0.0014599 -79.491 -19.419 -0.36378 1.3757 1.9746 1863.9 -0.0073985 869.01 0.19322 685.00 0.0014599 -79.491 -19.419 -0.36378 1.3757 1.9746 1863.9 -0.0073985 869.01 0.19322
-120.62 6275.1 undefined -78.114 -14.953 -0.35472 685.00 0.0014599 -78.114 -14.953 -0.35472 1.3778 1.9748 1866.3 -0.0073987 862.74 0.19350 685.00 0.0014599 -78.114 -14.953 -0.35472 1.3778 1.9748 1866.3 -0.0073987 862.74 0.19350
-119.62 6581.0 undefined -76.735 -10.495 -0.34571 685.00 0.0014599 -76.735 -10.495 -0.34571 1.3801 1.9750 1868.7 -0.0073988 856.60 0.19378 685.00 0.0014599 -76.735 -10.495 -0.34571 1.3801 1.9750 1868.7 -0.0073988 856.60 0.19378
-118.62 6886.1 undefined -75.354 -6.0430 -0.33675 685.00 0.0014599 -75.354 -6.0430 -0.33675 1.3823 1.9752 1871.1 -0.0073988 850.58 0.19407 685.00 0.0014599 -75.354 -6.0430 -0.33675 1.3823 1.9752 1871.1 -0.0073988 850.58 0.19407
-117.62 7190.3 undefined -73.970 -1.5979 -0.32782 685.00 0.0014599 -73.970 -1.5979 -0.32782 1.3845 1.9754 1873.5 -0.0073987 844.68 0.19435 685.00 0.0014599 -73.970 -1.5979 -0.32782 1.3845 1.9754 1873.5 -0.0073987 844.68 0.19435
-116.62 7493.6 undefined -72.585 2.8406 -0.31894 685.00 0.0014599 -72.585 2.8406 -0.31894 1.3867 1.9757 1875.8 -0.0073985 838.90 0.19463 685.00 0.0014599 -72.585 2.8406 -0.31894 1.3867 1.9757 1875.8 -0.0073985 838.90 0.19463
-115.62 7796.0 undefined -71.197 7.2726 -0.31010 685.00 0.0014599 -71.197 7.2726 -0.31010 1.3889 1.9760 1878.2 -0.0073982 833.23 0.19492 685.00 0.0014599 -71.197 7.2726 -0.31010 1.3889 1.9760 1878.2 -0.0073982 833.23 0.19492
-114.62 8097.6 undefined -69.807 11.698 -0.30131 685.00 0.0014599 -69.807 11.698 -0.30131 1.3912 1.9763 1880.5 -0.0073978 827.68 0.19520 685.00 0.0014599 -69.807 11.698 -0.30131 1.3912 1.9763 1880.5 -0.0073978 827.68 0.19520
-113.62 8398.3 undefined -68.415 16.117 -0.29255 685.00 0.0014599 -68.415 16.117 -0.29255 1.3934 1.9766 1882.8 -0.0073972 822.23 0.19548 685.00 0.0014599 -68.415 16.117 -0.29255 1.3934 1.9766 1882.8 -0.0073972 822.23 0.19548
-112.62 8698.2 undefined -67.020 20.530 -0.28384 685.00 0.0014599 -67.020 20.530 -0.28384 1.3957 1.9770 1885.1 -0.0073966 816.88 0.19577 685.00 0.0014599 -67.020 20.530 -0.28384 1.3957 1.9770 1885.1 -0.0073966 816.88 0.19577
-111.62 8997.3 undefined -65.623 24.937 -0.27516 685.00 0.0014599 -65.623 24.937 -0.27516 1.3979 1.9774 1887.4 -0.0073959 811.64 0.19605 685.00 0.0014599 -65.623 24.937 -0.27516 1.3979 1.9774 1887.4 -0.0073959 811.64 0.19605
-110.62 9295.5 undefined -64.224 29.338 -0.26653 685.00 0.0014599 -64.224 29.338 -0.26653 1.4002 1.9778 1889.6 -0.0073950 806.49 0.19634 685.00 0.0014599 -64.224 29.338 -0.26653 1.4002 1.9778 1889.6 -0.0073950 806.49 0.19634
-109.62 9592.8 undefined -62.823 33.732 -0.25793 685.00 0.0014599 -62.823 33.732 -0.25793 1.4025 1.9783 1891.9 -0.0073941 801.45 0.19662 685.00 0.0014599 -62.823 33.732 -0.25793 1.4025 1.9783 1891.9 -0.0073941 801.45 0.19662
-108.62 9889.4 undefined -61.419 38.121 -0.24938 685.00 0.0014599 -61.419 38.121 -0.24938 1.4048 1.9787 1894.1 -0.0073931 796.49 0.19691 685.00 0.0014599 -61.419 38.121 -0.24938 1.4048 1.9787 1894.1 -0.0073931 796.49 0.19691
-107.62 10185. undefined -60.013 42.503 -0.24086 685.00 0.0014599 -60.013 42.503 -0.24086 1.4071 1.9792 1896.3 -0.0073919 791.63 0.19720 685.00 0.0014599 -60.013 42.503 -0.24086 1.4071 1.9792 1896.3 -0.0073919 791.63 0.19720
-106.62 10480. undefined -58.605 46.880 -0.23237 685.00 0.0014599 -58.605 46.880 -0.23237 1.4094 1.9798 1898.5 -0.0073907 786.86 0.19748 685.00 0.0014599 -58.605 46.880 -0.23237 1.4094 1.9798 1898.5 -0.0073907 786.86 0.19748
-105.62 10774. undefined -57.195 51.251 -0.22393 685.00 0.0014599 -57.195 51.251 -0.22393 1.4117 1.9803 1900.7 -0.0073893 782.17 0.19777 685.00 0.0014599 -57.195 51.251 -0.22393 1.4117 1.9803 1900.7 -0.0073893 782.17 0.19777
-104.62 11068. undefined -55.782 55.617 -0.21552 685.00 0.0014599 -55.782 55.617 -0.21552 1.4140 1.9809 1902.9 -0.0073878 777.57 0.19805 685.00 0.0014599 -55.782 55.617 -0.21552 1.4140 1.9809 1902.9 -0.0073878 777.57 0.19805
