Temperature (C) Pressure (psia) Quality (l+v) Internal Energy (l+v, kJ/kg) Enthalpy (l+v, kJ/kg) Entropy (l+v, J/g*K) Density (l, kg/m3) Volume (l, m3/kg) Internal Energy (l, kJ/kg) Enthalpy (l, kJ/kg) Entropy (l, J/g*K) Cv (l, J/g*K) Cp (l, J/g*K) Sound Spd. (l, m/s) Joule-Thomson (l, F/psia) Viscosity (l, uPa*s) Therm. Cond. (l, W/m*K) Density (v, kg/m3) Volume (v, m3/kg) Internal Energy (v, kJ/kg) Enthalpy (v, kJ/kg) Entropy (v, J/g*K) Cv (v, J/g*K) Cp (v, J/g*K) Sound Spd. (v, m/s) Joule-Thomson (v, F/psia) Viscosity (v, uPa*s) Therm. Cond. (v, W/m*K)
-187.62 2.4953e-08 9.0953e-13 -196.64 -196.64 -1.3959 733.13 0.0013640 -196.64 -196.64 -1.3959 1.3553 1.9158 2136.4 -0.0077592 10960. 0.20792 1.0669e-08 9.3732e+07 350.13 366.26 5.1858 0.69067 0.87923 143.28 6.1051 2.3259 0.0017061
-186.62 3.7339e-08 1.3146e-12 -194.73 -194.73 -1.3736 732.08 0.0013660 -194.73 -194.73 -1.3736 1.3539 1.9166 2129.6 -0.0077546 10073. 0.20765 1.5780e-08 6.3371e+07 350.82 367.14 5.1200 0.69462 0.88317 144.03 5.9178 2.3534 0.0017533
-185.62 5.5322e-08 1.8804e-12 -192.81 -192.81 -1.3516 731.04 0.0013679 -192.81 -192.81 -1.3516 1.3525 1.9174 2122.9 -0.0077498 9276.1 0.20737 2.3112e-08 4.3267e+07 351.52 368.02 5.0561 0.69857 0.88713 144.77 5.7383 2.3808 0.0018007
-184.62 8.1182e-08 2.6628e-12 -190.89 -190.89 -1.3298 730.00 0.0013699 -190.89 -190.89 -1.3298 1.3513 1.9182 2116.1 -0.0077448 8557.8 0.20708 3.3533e-08 2.9821e+07 352.22 368.91 4.9939 0.70253 0.89108 145.51 5.5662 2.4083 0.0018485
-183.62 1.1803e-07 3.7342e-12 -188.97 -188.97 -1.3083 728.96 0.0013718 -188.97 -188.97 -1.3083 1.3501 1.9191 2109.3 -0.0077395 7909.8 0.20678 4.8211e-08 2.0742e+07 352.92 369.81 4.9333 0.70648 0.89504 146.24 5.4011 2.4357 0.0018965
-182.62 1.7009e-07 5.1871e-12 -187.05 -187.05 -1.2869 727.92 0.0013738 -187.05 -187.05 -1.2869 1.3490 1.9201 2102.5 -0.0077340 7324.3 0.20647 6.8704e-08 1.4555e+07 353.63 370.70 4.8744 0.71043 0.89899 146.97 5.2426 2.4632 0.0019448
-181.62 2.4299e-07 7.1392e-12 -185.13 -185.13 -1.2658 726.88 0.0013757 -185.13 -185.13 -1.2658 1.3480 1.9210 2095.7 -0.0077283 6794.5 0.20616 9.7079e-08 1.0301e+07 354.35 371.60 4.8170 0.71438 0.90294 147.69 5.0904 2.4906 0.0019934
-180.62 3.4425e-07 9.7380e-12 -183.21 -183.21 -1.2450 725.85 0.0013777 -183.21 -183.21 -1.2450 1.3470 1.9220 2088.9 -0.0077225 6314.4 0.20584 1.3605e-07 7.3504e+06 355.06 372.51 4.7612 0.71833 0.90688 148.41 4.9442 2.5181 0.0020423
-179.62 4.8378e-07 1.3167e-11 -181.29 -181.29 -1.2243 724.81 0.0013797 -181.29 -181.29 -1.2243 1.3461 1.9231 2082.0 -0.0077164 5878.8 0.20551 1.8915e-07 5.2868e+06 355.78 373.42 4.7068 0.72227 0.91082 149.13 4.8038 2.5456 0.0020915
-178.62 6.7459e-07 1.7652e-11 -179.37 -179.37 -1.2038 723.78 0.0013816 -179.37 -179.37 -1.2038 1.3453 1.9241 2075.2 -0.0077102 5482.9 0.20517 2.6096e-07 3.8320e+06 356.51 374.33 4.6538 0.72620 0.91475 149.84 4.6688 2.5731 0.0021410
-177.62 9.3358e-07 2.3469e-11 -177.44 -177.44 -1.1836 722.75 0.0013836 -177.44 -177.44 -1.1836 1.3445 1.9252 2068.4 -0.0077039 5122.6 0.20483 3.5737e-07 2.7982e+06 357.23 375.25 4.6022 0.73012 0.91867 150.54 4.5390 2.6005 0.0021907
-176.62 1.2826e-06 3.0949e-11 -175.52 -175.52 -1.1635 721.72 0.0013856 -175.52 -175.52 -1.1635 1.3437 1.9263 2061.5 -0.0076973 4794.1 0.20447 4.8588e-07 2.0581e+06 357.97 376.17 4.5519 0.73403 0.92258 151.25 4.4142 2.6280 0.0022408
-175.62 1.7496e-06 4.0487e-11 -173.59 -173.59 -1.1437 720.69 0.0013876 -173.59 -173.59 -1.1437 1.3430 1.9274 2054.7 -0.0076907 4494.3 0.20411 6.5601e-07 1.5244e+06 358.70 377.09 4.5029 0.73792 0.92648 151.95 4.2941 2.6555 0.0022912
-174.62 2.3705e-06 5.2553e-11 -171.66 -171.66 -1.1240 719.66 0.0013895 -171.66 -171.66 -1.1240 1.3423 1.9286 2047.9 -0.0076838 4220.2 0.20375 8.7976e-07 1.1367e+06 359.44 378.02 4.4551 0.74181 0.93036 152.64 4.1784 2.6830 0.0023418
-173.62 3.1903e-06 6.7690e-11 -169.73 -169.73 -1.1045 718.64 0.0013915 -169.73 -169.73 -1.1045 1.3417 1.9298 2041.0 -0.0076769 3969.3 0.20338 1.1721e-06 8.5314e+05 360.19 378.95 4.4085 0.74568 0.93423 153.33 4.0671 2.7105 0.0023928
-172.62 4.2661e-06 8.6529e-11 -167.80 -167.80 -1.0852 717.61 0.0013935 -167.80 -167.80 -1.0852 1.3411 1.9310 2034.2 -0.0076698 3739.3 0.20300 1.5518e-06 6.4441e+05 360.93 379.89 4.3631 0.74953 0.93809 154.02 3.9599 2.7379 0.0024440
-171.62 5.6692e-06 1.0979e-10 -165.87 -165.87 -1.0661 716.58 0.0013955 -165.87 -165.87 -1.0661 1.3405 1.9322 2027.3 -0.0076625 3528.0 0.20261 2.0419e-06 4.8974e+05 361.69 380.83 4.3188 0.75337 0.94193 154.71 3.8566 2.7654 0.0024955
-170.62 7.4884e-06 1.3827e-10 -163.94 -163.94 -1.0472 715.56 0.0013975 -163.94 -163.94 -1.0472 1.3400 1.9334 2020.5 -0.0076552 3333.8 0.20222 2.6708e-06 3.7442e+05 362.44 381.77 4.2755 0.75720 0.94575 155.39 3.7570 2.7929 0.0025473
-169.62 9.8334e-06 1.7286e-10 -162.00 -162.00 -1.0284 714.54 0.0013995 -162.00 -162.00 -1.0284 1.3395 1.9347 2013.6 -0.0076477 3154.9 0.20182 3.4733e-06 2.8791e+05 363.20 382.72 4.2334 0.76100 0.94956 156.07 3.6609 2.8204 0.0025994
-168.62 1.2839e-05 2.1454e-10 -160.07 -160.07 -1.0098 713.52 0.0014015 -160.07 -160.07 -1.0098 1.3390 1.9359 2006.8 -0.0076401 2989.9 0.20141 4.4917e-06 2.2263e+05 363.96 383.67 4.1922 0.76479 0.95335 156.74 3.5683 2.8479 0.0026518
-167.62 1.6672e-05 2.6434e-10 -158.13 -158.13 -0.99134 712.49 0.0014035 -158.13 -158.13 -0.99134 1.3386 1.9372 2000.0 -0.0076323 2837.5 0.20100 5.7771e-06 1.7310e+05 364.73 384.63 4.1521 0.76856 0.95712 157.41 3.4790 2.8754 0.0027045
-166.62 2.1533e-05 3.2332e-10 -156.19 -156.19 -0.97306 711.47 0.0014055 -156.19 -156.19 -0.97306 1.3382 1.9385 1993.1 -0.0076245 2696.5 0.20058 7.3914e-06 1.3529e+05 365.50 385.59 4.1129 0.77232 0.96087 158.08 3.3927 2.9029 0.0027575
-165.62 2.7666e-05 3.9258e-10 -154.25 -154.25 -0.95494 710.45 0.0014075 -154.25 -154.25 -0.95494 1.3378 1.9398 1986.3 -0.0076165 2566.0 0.20016 9.4084e-06 1.0629e+05 366.27 386.55 4.0746 0.77605 0.96460 158.75 3.3095 2.9304 0.0028108
-164.62 3.5367e-05 4.7314e-10 -152.31 -152.31 -0.93698 709.44 0.0014096 -152.31 -152.31 -0.93698 1.3375 1.9411 1979.4 -0.0076084 2444.9 0.19973 1.1916e-05 83918. 367.05 387.52 4.0372 0.77976 0.96832 159.41 3.2291 2.9579 0.0028643
-163.62 4.4989e-05 5.6595e-10 -150.37 -150.37 -0.91917 708.42 0.0014116 -150.37 -150.37 -0.91917 1.3371 1.9424 1972.6 -0.0076002 2332.3 0.19930 1.5020e-05 66577. 367.83 388.49 4.0008 0.78346 0.97201 160.07 3.1514 2.9854 0.0029182
-162.62 5.6956e-05 6.7177e-10 -148.43 -148.43 -0.90151 707.40 0.0014136 -148.43 -148.43 -0.90151 1.3368 1.9437 1965.8 -0.0075919 2227.7 0.19886 1.8844e-05 53068. 368.62 389.46 3.9651 0.78713 0.97569 160.72 3.0764 3.0129 0.0029723
-161.62 7.1773e-05 7.9106e-10 -146.48 -146.48 -0.88400 706.38 0.0014157 -146.48 -146.48 -0.88400 1.3365 1.9451 1959.0 -0.0075834 2130.2 0.19841 2.3533e-05 42494. 369.41 390.44 3.9304 0.79079 0.97935 161.38 3.0038 3.0404 0.0030268
-160.62 9.0036e-05 9.2389e-10 -144.54 -144.54 -0.86663 705.37 0.0014177 -144.54 -144.54 -0.86663 1.3363 1.9465 1952.1 -0.0075748 2039.2 0.19796 2.9258e-05 34178. 370.20 391.42 3.8964 0.79443 0.98298 162.03 2.9337 3.0679 0.0030815
-159.62 0.00011245 1.0697e-09 -142.59 -142.59 -0.84940 704.35 0.0014197 -142.59 -142.59 -0.84940 1.3360 1.9478 1945.3 -0.0075661 1954.2 0.19751 3.6221e-05 27609. 371.00 392.40 3.8632 0.79805 0.98660 162.68 2.8658 3.0955 0.0031365
-158.62 0.00013985 1.2273e-09 -140.64 -140.64 -0.83231 703.34 0.0014218 -140.64 -140.64 -0.83231 1.3358 1.9492 1938.5 -0.0075573 1874.8 0.19705 4.4652e-05 22395. 371.80 393.39 3.8307 0.80164 0.99020 163.32 2.8002 3.1230 0.0031918
-157.62 0.00017320 1.3942e-09 -138.69 -138.69 -0.81536 702.32 0.0014238 -138.69 -138.69 -0.81536 1.3356 1.9506 1931.7 -0.0075484 1800.3 0.19658 5.4822e-05 18241. 372.60 394.38 3.7990 0.80522 0.99378 163.96 2.7367 3.1505 0.0032474
-156.62 0.00021364 1.5670e-09 -136.74 -136.74 -0.79854 701.31 0.0014259 -136.74 -136.74 -0.79854 1.3354 1.9520 1924.9 -0.0075393 1730.5 0.19611 6.7040e-05 14916. 373.41 395.38 3.7680 0.80878 0.99734 164.60 2.6752 3.1780 0.0033033
-155.62 0.00026248 1.7405e-09 -134.79 -134.79 -0.78185 700.30 0.0014280 -134.79 -134.79 -0.78185 1.3352 1.9534 1918.1 -0.0075302 1664.9 0.19564 8.1666e-05 12245. 374.22 396.38 3.7377 0.81232 1.0009 165.24 2.6157 3.2055 0.0033595
-154.62 0.00032125 1.9073e-09 -132.83 -132.83 -0.76530 699.29 0.0014300 -132.83 -132.83 -0.76530 1.3350 1.9548 1911.3 -0.0075209 1603.3 0.19516 9.9109e-05 10090. 375.03 397.38 3.7081 0.81585 1.0044 165.87 2.5580 3.2330 0.0034160
-153.62 0.00039171 2.0577e-09 -130.88 -130.88 -0.74887 698.27 0.0014321 -130.88 -130.88 -0.74887 1.3349 1.9563 1904.5 -0.0075114 1545.3 0.19468 0.00011984 8344.6 375.85 398.39 3.6792 0.81935 1.0079 166.50 2.5022 3.2606 0.0034727
-152.62 0.00047590 2.1792e-09 -128.92 -128.92 -0.73256 697.26 0.0014342 -128.92 -128.92 -0.73256 1.3348 1.9577 1897.8 -0.0075019 1490.6 0.19419 0.00014439 6925.9 376.67 399.40 3.6509 0.82284 1.0114 167.13 2.4481 3.2881 0.0035298
-151.62 0.00057613 2.2553e-09 -126.96 -126.96 -0.71638 696.25 0.0014363 -126.96 -126.96 -0.71638 1.3346 1.9592 1891.0 -0.0074922 1438.9 0.19370 0.00017336 5768.4 377.49 400.41 3.6232 0.82631 1.0149 167.76 2.3957 3.3156 0.0035872
-150.62 0.00069507 2.2653e-09 -125.00 -125.00 -0.70032 695.24 0.0014384 -125.00 -125.00 -0.70032 1.3345 1.9606 1884.2 -0.0074824 1390.2 0.19320 0.00020744 4820.7 378.32 401.42 3.5962 0.82976 1.0183 168.38 2.3448 3.3431 0.0036448
-149.62 0.00083574 2.1836e-09 -123.04 -123.04 -0.68438 694.23 0.0014404 -123.04 -123.04 -0.68438 1.3345 1.9621 1877.4 -0.0074724 1344.0 0.19270 0.00024740 4042.0 379.15 402.44 3.5697 0.83319 1.0218 169.00 2.2956 3.3706 0.0037027
-148.62 0.0010016 1.9783e-09 -121.08 -121.08 -0.66855 693.22 0.0014425 -121.08 -121.08 -0.66855 1.3344 1.9636 1870.7 -0.0074623 1300.3 0.19220 0.00029412 3400.0 379.99 403.47 3.5438 0.83661 1.0252 169.62 2.2478 3.3982 0.0037610
-147.62 0.0011965 1.6105e-09 -119.11 -119.11 -0.65284 692.21 0.0014447 -119.11 -119.11 -0.65284 1.3343 1.9651 1863.9 -0.0074521 1258.9 0.19169 0.00034856 2869.0 380.83 404.49 3.5185 0.84001 1.0286 170.24 2.2014 3.4257 0.0038195
-146.62 0.0014249 1.0333e-09 -117.15 -117.15 -0.63724 691.20 0.0014468 -117.15 -117.15 -0.63724 1.3343 1.9666 1857.2 -0.0074417 1219.6 0.19117 0.00041181 2428.3 381.67 405.52 3.4938 0.84340 1.0320 170.85 2.1565 3.4532 0.0038783
-145.62 0.0016917 1.9013e-10 -115.18 -115.18 -0.62175 690.19 0.0014489 -115.18 -115.18 -0.62175 1.3343 1.9682 1850.4 -0.0074312 1182.3 0.19066 0.00048510 2061.4 382.51 406.56 3.4695 0.84677 1.0353 171.46 2.1128 3.4807 0.0039374
-144.62 276.38 undefined -113.73 -110.97 -0.61040 690.00 0.0014493 -113.73 -110.97 -0.61040 1.3361 1.9683 1851.4 -0.0074305 1165.1 0.19080 690.00 0.0014493 -113.73 -110.97 -0.61040 1.3361 1.9683 1851.4 -0.0074305 1165.1 0.19080
-143.62 614.34 undefined -112.39 -106.25 -0.60004 690.00 0.0014493 -112.39 -106.25 -0.60004 1.3383 1.9680 1854.0 -0.0074319 1152.5 0.19109 690.00 0.0014493 -112.39 -106.25 -0.60004 1.3383 1.9680 1854.0 -0.0074319 1152.5 0.19109
-142.62 951.13 undefined -111.05 -101.55 -0.58974 690.00 0.0014493 -111.05 -101.55 -0.58974 1.3405 1.9678 1856.7 -0.0074333 1140.3 0.19138 690.00 0.0014493 -111.05 -101.55 -0.58974 1.3405 1.9678 1856.7 -0.0074333 1140.3 0.19138
-141.62 1286.8 undefined -109.71 -96.853 -0.57950 690.00 0.0014493 -109.71 -96.853 -0.57950 1.3427 1.9677 1859.4 -0.0074345 1128.4 0.19167 690.00 0.0014493 -109.71 -96.853 -0.57950 1.3427 1.9677 1859.4 -0.0074345 1128.4 0.19167
-140.62 1621.3 undefined -108.37 -92.167 -0.56932 690.00 0.0014493 -108.37 -92.167 -0.56932 1.3448 1.9675 1862.0 -0.0074357 1116.8 0.19196 690.00 0.0014493 -108.37 -92.167 -0.56932 1.3448 1.9675 1862.0 -0.0074357 1116.8 0.19196
-139.62 1954.7 undefined -107.02 -87.490 -0.55920 690.00 0.0014493 -107.02 -87.490 -0.55920 1.3470 1.9674 1864.6 -0.0074367 1105.5 0.19225 690.00 0.0014493 -107.02 -87.490 -0.55920 1.3470 1.9674 1864.6 -0.0074367 1105.5 0.19225
-138.62 2286.9 undefined -105.67 -82.822 -0.54915 690.00 0.0014493 -105.67 -82.822 -0.54915 1.3492 1.9673 1867.3 -0.0074377 1094.5 0.19255 690.00 0.0014493 -105.67 -82.822 -0.54915 1.3492 1.9673 1867.3 -0.0074377 1094.5 0.19255
-137.62 2618.1 undefined -104.32 -78.162 -0.53915 690.00 0.0014493 -104.32 -78.162 -0.53915 1.3513 1.9672 1869.9 -0.0074386 1083.8 0.19284 690.00 0.0014493 -104.32 -78.162 -0.53915 1.3513 1.9672 1869.9 -0.0074386 1083.8 0.19284
-136.62 2948.2 undefined -102.97 -73.511 -0.52920 690.00 0.0014493 -102.97 -73.511 -0.52920 1.3535 1.9672 1872.5 -0.0074393 1073.3 0.19313 690.00 0.0014493 -102.97 -73.511 -0.52920 1.3535 1.9672 1872.5 -0.0074393 1073.3 0.19313
-135.62 3277.2 undefined -101.62 -68.869 -0.51932 690.00 0.0014493 -101.62 -68.869 -0.51932 1.3556 1.9671 1875.1 -0.0074400 1063.1 0.19342 690.00 0.0014493 -101.62 -68.869 -0.51932 1.3556 1.9671 1875.1 -0.0074400 1063.1 0.19342
-134.62 3605.2 undefined -100.26 -64.235 -0.50949 690.00 0.0014493 -100.26 -64.235 -0.50949 1.3578 1.9671 1877.7 -0.0074406 1053.2 0.19372 690.00 0.0014493 -100.26 -64.235 -0.50949 1.3578 1.9671 1877.7 -0.0074406 1053.2 0.19372
-133.62 3932.1 undefined -98.901 -59.610 -0.49971 690.00 0.0014493 -98.901 -59.610 -0.49971 1.3599 1.9671 1880.2 -0.0074411 1043.5 0.19401 690.00 0.0014493 -98.901 -59.610 -0.49971 1.3599 1.9671 1880.2 -0.0074411 1043.5 0.19401
-132.62 4257.9 undefined -97.540 -54.993 -0.48999 690.00 0.0014493 -97.540 -54.993 -0.48999 1.3621 1.9672 1882.8 -0.0074415 1034.0 0.19430 690.00 0.0014493 -97.540 -54.993 -0.48999 1.3621 1.9672 1882.8 -0.0074415 1034.0 0.19430
-131.62 4582.7 undefined -96.176 -50.384 -0.48033 690.00 0.0014493 -96.176 -50.384 -0.48033 1.3642 1.9672 1885.3 -0.0074418 1024.8 0.19460 690.00 0.0014493 -96.176 -50.384 -0.48033 1.3642 1.9672 1885.3 -0.0074418 1024.8 0.19460
-130.62 4906.6 undefined -94.811 -45.783 -0.47071 690.00 0.0014493 -94.811 -45.783 -0.47071 1.3664 1.9673 1887.8 -0.0074421 1015.7 0.19489 690.00 0.0014493 -94.811 -45.783 -0.47071 1.3664 1.9673 1887.8 -0.0074421 1015.7 0.19489
-129.62 5229.3 undefined -93.444 -41.190 -0.46115 690.00 0.0014493 -93.444 -41.190 -0.46115 1.3685 1.9674 1890.3 -0.0074422 1006.9 0.19519 690.00 0.0014493 -93.444 -41.190 -0.46115 1.3685 1.9674 1890.3 -0.0074422 1006.9 0.19519
-128.62 5551.1 undefined -92.074 -36.605 -0.45164 690.00 0.0014493 -92.074 -36.605 -0.45164 1.3707 1.9675 1892.8 -0.0074423 998.30 0.19548 690.00 0.0014493 -92.074 -36.605 -0.45164 1.3707 1.9675 1892.8 -0.0074423 998.30 0.19548
-127.62 5871.9 undefined -90.702 -32.028 -0.44219 690.00 0.0014493 -90.702 -32.028 -0.44219 1.3728 1.9676 1895.3 -0.0074423 989.87 0.19578 690.00 0.0014493 -90.702 -32.028 -0.44219 1.3728 1.9676 1895.3 -0.0074423 989.87 0.19578
-126.62 6191.8 undefined -89.328 -27.458 -0.43278 690.00 0.0014493 -89.328 -27.458 -0.43278 1.3750 1.9678 1897.8 -0.0074421 981.64 0.19607 690.00 0.0014493 -89.328 -27.458 -0.43278 1.3750 1.9678 1897.8 -0.0074421 981.64 0.19607
-125.62 6510.6 undefined -87.952 -22.896 -0.42342 690.00 0.0014493 -87.952 -22.896 -0.42342 1.3771 1.9680 1900.2 -0.0074419 973.59 0.19637 690.00 0.0014493 -87.952 -22.896 -0.42342 1.3771 1.9680 1900.2 -0.0074419 973.59 0.19637
-124.62 6828.5 undefined -86.574 -18.341 -0.41411 690.00 0.0014493 -86.574 -18.341 -0.41411 1.3793 1.9682 1902.7 -0.0074416 965.72 0.19666 690.00 0.0014493 -86.574 -18.341 -0.41411 1.3793 1.9682 1902.7 -0.0074416 965.72 0.19666
-123.62 7145.4 undefined -85.194 -13.794 -0.40484 690.00 0.0014493 -85.194 -13.794 -0.40484 1.3815 1.9684 1905.1 -0.0074413 958.02 0.19696 690.00 0.0014493 -85.194 -13.794 -0.40484 1.3815 1.9684 1905.1 -0.0074413 958.02 0.19696
-122.62 7461.4 undefined -83.811 -9.2542 -0.39563 690.00 0.0014493 -83.811 -9.2542 -0.39563 1.3836 1.9687 1907.5 -0.0074408 950.49 0.19726 690.00 0.0014493 -83.811 -9.2542 -0.39563 1.3836 1.9687 1907.5 -0.0074408 950.49 0.19726
-121.62 7776.4 undefined -82.426 -4.7215 -0.38646 690.00 0.0014493 -82.426 -4.7215 -0.38646 1.3858 1.9690 1909.9 -0.0074402 943.12 0.19755 690.00 0.0014493 -82.426 -4.7215 -0.38646 1.3858 1.9690 1909.9 -0.0074402 943.12 0.19755
-120.62 8090.5 undefined -81.040 -0.19602 -0.37734 690.00 0.0014493 -81.040 -0.19602 -0.37734 1.3880 1.9692 1912.2 -0.0074396 935.91 0.19785 690.00 0.0014493 -81.040 -0.19602 -0.37734 1.3880 1.9692 1912.2 -0.0074396 935.91 0.19785
-119.62 8403.7 undefined -79.651 4.3224 -0.36826 690.00 0.0014493 -79.651 4.3224 -0.36826 1.3902 1.9696 1914.6 -0.0074388 928.85 0.19815 690.00 0.0014493 -79.651 4.3224 -0.36826 1.3902 1.9696 1914.6 -0.0074388 928.85 0.19815
-118.62 8715.9 undefined -78.259 8.8339 -0.35923 690.00 0.0014493 -78.259 8.8339 -0.35923 1.3924 1.9699 1916.9 -0.0074380 921.94 0.19845 690.00 0.0014493 -78.259 8.8339 -0.35923 1.3924 1.9699 1916.9 -0.0074380 921.94 0.19845
-117.62 9027.3 undefined -76.866 13.339 -0.35024 690.00 0.0014493 -76.866 13.339 -0.35024 1.3946 1.9703 1919.2 -0.0074371 915.17 0.19874 690.00 0.0014493 -76.866 13.339 -0.35024 1.3946 1.9703 1919.2 -0.0074371 915.17 0.19874
-116.62 9337.7 undefined -75.470 17.836 -0.34129 690.00 0.0014493 -75.470 17.836 -0.34129 1.3968 1.9707 1921.5 -0.0074361 908.54 0.19904 690.00 0.0014493 -75.470 17.836 -0.34129 1.3968 1.9707 1921.5 -0.0074361 908.54 0.19904
-115.62 9647.3 undefined -74.072 22.327 -0.33239 690.00 0.0014493 -74.072 22.327 -0.33239 1.3990 1.9711 1923.8 -0.0074349 902.04 0.19934 690.00 0.0014493 -74.072 22.327 -0.33239 1.3990 1.9711 1923.8 -0.0074349 902.04 0.19934
-114.62 9956.0 undefined -72.672 26.812 -0.32353 690.00 0.0014493 -72.672 26.812 -0.32353 1.4012 1.9715 1926.1 -0.0074337 895.68 0.19964 690.00 0.0014493 -72.672 26.812 -0.32353 1.4012 1.9715 1926.1 -0.0074337 895.68 0.19964
-113.62 10264. undefined -71.270 31.290 -0.31471 690.00 0.0014493 -71.270 31.290 -0.31471 1.4034 1.9720 1928.4 -0.0074325 889.45 0.19994 690.00 0.0014493 -71.270 31.290 -0.31471 1.4034 1.9720 1928.4 -0.0074325 889.45 0.19994
-112.62 10571. undefined -69.865 35.761 -0.30593 690.00 0.0014493 -69.865 35.761 -0.30593 1.4057 1.9725 1930.6 -0.0074311 883.34 0.20024 690.00 0.0014493 -69.865 35.761 -0.30593 1.4057 1.9725 1930.6 -0.0074311 883.34 0.20024
-111.62 10877. undefined -68.459 40.226 -0.29720 690.00 0.0014493 -68.459 40.226 -0.29720 1.4079 1.9730 1932.8 -0.0074296 877.35 0.20054 690.00 0.0014493 -68.459 40.226 -0.29720 1.4079 1.9730 1932.8 -0.0074296 877.35 0.20054
-110.62 11182. undefined -67.050 44.684 -0.28850 690.00 0.0014493 -67.050 44.684 -0.28850 1.4102 1.9735 1935.0 -0.0074280 871.47 0.20084 690.00 0.0014493 -67.050 44.684 -0.28850 1.4102 1.9735 1935.0 -0.0074280 871.47 0.20084
-109.62 11486. undefined -65.638 49.137 -0.27985 690.00 0.0014493 -65.638 49.137 -0.27985 1.4124 1.9740 1937.2 -0.0074264 865.72 0.20114 690.00 0.0014493 -65.638 49.137 -0.27985 1.4124 1.9740 1937.2 -0.0074264 865.72 0.20114
-108.62 11790. undefined -64.225 53.583 -0.27123 690.00 0.0014493 -64.225 53.583 -0.27123 1.4147 1.9746 1939.4 -0.0074246 860.07 0.20144 690.00 0.0014493 -64.225 53.583 -0.27123 1.4147 1.9746 1939.4 -0.0074246 860.07 0.20144
-107.62 12092. undefined -62.809 58.023 -0.26265 690.00 0.0014493 -62.809 58.023 -0.26265 1.4170 1.9752 1941.6 -0.0074227 854.53 0.20174 690.00 0.0014493 -62.809 58.023 -0.26265 1.4170 1.9752 1941.6 -0.0074227 854.53 0.20174
-106.62 12394. undefined -61.391 62.457 -0.25411 690.00 0.0014493 -61.391 62.457 -0.25411 1.4193 1.9758 1943.7 -0.0074208 849.10 0.20204 690.00 0.0014493 -61.391 62.457 -0.25411 1.4193 1.9758 1943.7 -0.0074208 849.10 0.20204
-105.62 12695. undefined -59.970 66.885 -0.24560 690.00 0.0014493 -59.970 66.885 -0.24560 1.4216 1.9765 1945.9 -0.0074187 843.77 0.20234 690.00 0.0014493 -59.970 66.885 -0.24560 1.4216 1.9765 1945.9 -0.0074187 843.77 0.20234
-104.62 12995. undefined -58.548 71.307 -0.23713 690.00 0.0014493 -58.548 71.307 -0.23713 1.4239 1.9772 1948.0 -0.0074166 838.53 0.20264 690.00 0.0014493 -58.548 71.307 -0.23713 1.4239 1.9772 1948.0 -0.0074166 838.53 0.20264
