Temperature (C) Pressure (psia) Quality (l+v) Internal Energy (l+v, kJ/kg) Enthalpy (l+v, kJ/kg) Entropy (l+v, J/g*K) Density (l, kg/m3) Volume (l, m3/kg) Internal Energy (l, kJ/kg) Enthalpy (l, kJ/kg) Entropy (l, J/g*K) Cv (l, J/g*K) Cp (l, J/g*K) Sound Spd. (l, m/s) Joule-Thomson (l, F/psia) Viscosity (l, uPa*s) Therm. Cond. (l, W/m*K) Density (v, kg/m3) Volume (v, m3/kg) Internal Energy (v, kJ/kg) Enthalpy (v, kJ/kg) Entropy (v, J/g*K) Cv (v, J/g*K) Cp (v, J/g*K) Sound Spd. (v, m/s) Joule-Thomson (v, F/psia) Viscosity (v, uPa*s) Therm. Cond. (v, W/m*K)
-187.62 2.4953e-08 4.7398e-13 -196.64 -196.64 -1.3959 733.13 0.0013640 -196.64 -196.64 -1.3959 1.3553 1.9158 2136.4 -0.0077592 10960. 0.20792 1.0669e-08 9.3732e+07 350.13 366.26 5.1858 0.69067 0.87923 143.28 6.1051 2.3259 0.0017061
-186.62 3.7339e-08 6.7037e-13 -194.73 -194.73 -1.3736 732.08 0.0013660 -194.73 -194.73 -1.3736 1.3539 1.9166 2129.6 -0.0077546 10073. 0.20765 1.5780e-08 6.3371e+07 350.82 367.14 5.1200 0.69462 0.88317 144.03 5.9178 2.3534 0.0017533
-185.62 5.5322e-08 9.3686e-13 -192.81 -192.81 -1.3516 731.04 0.0013679 -192.81 -192.81 -1.3516 1.3525 1.9174 2122.9 -0.0077498 9276.1 0.20737 2.3112e-08 4.3267e+07 351.52 368.02 5.0561 0.69857 0.88713 144.77 5.7383 2.3808 0.0018007
-184.62 8.1182e-08 1.2939e-12 -190.89 -190.89 -1.3298 730.00 0.0013699 -190.89 -190.89 -1.3298 1.3513 1.9182 2116.1 -0.0077448 8557.8 0.20708 3.3533e-08 2.9821e+07 352.22 368.91 4.9939 0.70253 0.89108 145.51 5.5662 2.4083 0.0018485
-183.62 1.1803e-07 1.7660e-12 -188.97 -188.97 -1.3083 728.96 0.0013718 -188.97 -188.97 -1.3083 1.3501 1.9191 2109.3 -0.0077395 7909.8 0.20678 4.8211e-08 2.0742e+07 352.92 369.81 4.9333 0.70648 0.89504 146.24 5.4011 2.4357 0.0018965
-182.62 1.7009e-07 2.3823e-12 -187.05 -187.05 -1.2869 727.92 0.0013738 -187.05 -187.05 -1.2869 1.3490 1.9201 2102.5 -0.0077340 7324.3 0.20647 6.8704e-08 1.4555e+07 353.63 370.70 4.8744 0.71043 0.89899 146.97 5.2426 2.4632 0.0019448
-181.62 2.4299e-07 3.1760e-12 -185.13 -185.13 -1.2658 726.88 0.0013757 -185.13 -185.13 -1.2658 1.3480 1.9210 2095.7 -0.0077283 6794.5 0.20616 9.7079e-08 1.0301e+07 354.35 371.60 4.8170 0.71438 0.90294 147.69 5.0904 2.4906 0.0019934
-180.62 3.4425e-07 4.1839e-12 -183.21 -183.21 -1.2450 725.85 0.0013777 -183.21 -183.21 -1.2450 1.3470 1.9220 2088.9 -0.0077225 6314.4 0.20584 1.3605e-07 7.3504e+06 355.06 372.51 4.7612 0.71833 0.90688 148.41 4.9442 2.5181 0.0020423
-179.62 4.8378e-07 5.4451e-12 -181.29 -181.29 -1.2243 724.81 0.0013797 -181.29 -181.29 -1.2243 1.3461 1.9231 2082.0 -0.0077164 5878.8 0.20551 1.8915e-07 5.2868e+06 355.78 373.42 4.7068 0.72227 0.91082 149.13 4.8038 2.5456 0.0020915
-178.62 6.7459e-07 6.9986e-12 -179.37 -179.37 -1.2038 723.78 0.0013816 -179.37 -179.37 -1.2038 1.3453 1.9241 2075.2 -0.0077102 5482.9 0.20517 2.6096e-07 3.8320e+06 356.51 374.33 4.6538 0.72620 0.91475 149.84 4.6688 2.5731 0.0021410
-177.62 9.3358e-07 8.8794e-12 -177.44 -177.44 -1.1836 722.75 0.0013836 -177.44 -177.44 -1.1836 1.3445 1.9252 2068.4 -0.0077039 5122.6 0.20483 3.5737e-07 2.7982e+06 357.23 375.25 4.6022 0.73012 0.91867 150.54 4.5390 2.6005 0.0021907
-176.62 1.2826e-06 1.1113e-11 -175.52 -175.52 -1.1635 721.72 0.0013856 -175.52 -175.52 -1.1635 1.3437 1.9263 2061.5 -0.0076973 4794.1 0.20447 4.8588e-07 2.0581e+06 357.97 376.17 4.5519 0.73403 0.92258 151.25 4.4142 2.6280 0.0022408
-175.62 1.7496e-06 1.3706e-11 -173.59 -173.59 -1.1437 720.69 0.0013876 -173.59 -173.59 -1.1437 1.3430 1.9274 2054.7 -0.0076907 4494.3 0.20411 6.5601e-07 1.5244e+06 358.70 377.09 4.5029 0.73792 0.92648 151.95 4.2941 2.6555 0.0022912
-174.62 2.3705e-06 1.6637e-11 -171.66 -171.66 -1.1240 719.66 0.0013895 -171.66 -171.66 -1.1240 1.3423 1.9286 2047.9 -0.0076838 4220.2 0.20375 8.7976e-07 1.1367e+06 359.44 378.02 4.4551 0.74181 0.93036 152.64 4.1784 2.6830 0.0023418
-173.62 3.1903e-06 1.9838e-11 -169.73 -169.73 -1.1045 718.64 0.0013915 -169.73 -169.73 -1.1045 1.3417 1.9298 2041.0 -0.0076769 3969.3 0.20338 1.1721e-06 8.5314e+05 360.19 378.95 4.4085 0.74568 0.93423 153.33 4.0671 2.7105 0.0023928
-172.62 4.2661e-06 2.3176e-11 -167.80 -167.80 -1.0852 717.61 0.0013935 -167.80 -167.80 -1.0852 1.3411 1.9310 2034.2 -0.0076698 3739.3 0.20300 1.5518e-06 6.4441e+05 360.93 379.89 4.3631 0.74953 0.93809 154.02 3.9599 2.7379 0.0024440
-171.62 5.6692e-06 2.6426e-11 -165.87 -165.87 -1.0661 716.58 0.0013955 -165.87 -165.87 -1.0661 1.3405 1.9322 2027.3 -0.0076625 3528.0 0.20261 2.0419e-06 4.8974e+05 361.69 380.83 4.3188 0.75337 0.94193 154.71 3.8566 2.7654 0.0024955
-170.62 7.4884e-06 2.9232e-11 -163.94 -163.94 -1.0472 715.56 0.0013975 -163.94 -163.94 -1.0472 1.3400 1.9334 2020.5 -0.0076552 3333.8 0.20222 2.6708e-06 3.7442e+05 362.44 381.77 4.2755 0.75720 0.94575 155.39 3.7570 2.7929 0.0025473
-169.62 9.8334e-06 3.1066e-11 -162.00 -162.00 -1.0284 714.54 0.0013995 -162.00 -162.00 -1.0284 1.3395 1.9347 2013.6 -0.0076477 3154.9 0.20182 3.4733e-06 2.8791e+05 363.20 382.72 4.2334 0.76100 0.94956 156.07 3.6609 2.8204 0.0025994
-168.62 1.2839e-05 3.1170e-11 -160.07 -160.07 -1.0098 713.52 0.0014015 -160.07 -160.07 -1.0098 1.3390 1.9359 2006.8 -0.0076401 2989.9 0.20141 4.4917e-06 2.2263e+05 363.96 383.67 4.1922 0.76479 0.95335 156.74 3.5683 2.8479 0.0026518
-167.62 1.6672e-05 2.8487e-11 -158.13 -158.13 -0.99134 712.49 0.0014035 -158.13 -158.13 -0.99134 1.3386 1.9372 2000.0 -0.0076323 2837.5 0.20100 5.7771e-06 1.7310e+05 364.73 384.63 4.1521 0.76856 0.95712 157.41 3.4790 2.8754 0.0027045
-166.62 2.1533e-05 2.1570e-11 -156.19 -156.19 -0.97306 711.47 0.0014055 -156.19 -156.19 -0.97306 1.3382 1.9385 1993.1 -0.0076245 2696.5 0.20058 7.3914e-06 1.3529e+05 365.50 385.59 4.1129 0.77232 0.96087 158.08 3.3927 2.9029 0.0027575
-165.62 2.7666e-05 8.4807e-12 -154.25 -154.25 -0.95494 710.45 0.0014075 -154.25 -154.25 -0.95494 1.3378 1.9398 1986.3 -0.0076165 2566.0 0.20016 9.4084e-06 1.0629e+05 366.27 386.55 4.0746 0.77605 0.96460 158.75 3.3095 2.9304 0.0028108
-164.62 221.59 undefined -152.65 -150.49 -0.94006 710.00 0.0014085 -152.65 -150.49 -0.94006 1.3388 1.9404 1984.8 -0.0076123 2480.1 0.20017 710.00 0.0014085 -152.65 -150.49 -0.94006 1.3388 1.9404 1984.8 -0.0076123 2480.1 0.20017
-163.62 620.48 undefined -151.31 -145.28 -0.92777 710.00 0.0014085 -151.31 -145.28 -0.92777 1.3410 1.9404 1987.6 -0.0076111 2426.5 0.20052 710.00 0.0014085 -151.31 -145.28 -0.92777 1.3410 1.9404 1987.6 -0.0076111 2426.5 0.20052
-162.62 1017.7 undefined -149.96 -140.08 -0.91557 710.00 0.0014085 -149.96 -140.08 -0.91557 1.3431 1.9405 1990.4 -0.0076099 2375.3 0.20087 710.00 0.0014085 -149.96 -140.08 -0.91557 1.3431 1.9405 1990.4 -0.0076099 2375.3 0.20087
-161.62 1413.4 undefined -148.62 -134.90 -0.90347 710.00 0.0014085 -148.62 -134.90 -0.90347 1.3452 1.9406 1993.3 -0.0076086 2326.3 0.20123 710.00 0.0014085 -148.62 -134.90 -0.90347 1.3452 1.9406 1993.3 -0.0076086 2326.3 0.20123
-160.62 1807.5 undefined -147.27 -129.72 -0.89145 710.00 0.0014085 -147.27 -129.72 -0.89145 1.3474 1.9408 1996.1 -0.0076072 2279.5 0.20158 710.00 0.0014085 -147.27 -129.72 -0.89145 1.3474 1.9408 1996.1 -0.0076072 2279.5 0.20158
-159.62 2200.0 undefined -145.93 -124.56 -0.87952 710.00 0.0014085 -145.93 -124.56 -0.87952 1.3495 1.9409 1998.9 -0.0076058 2234.6 0.20194 710.00 0.0014085 -145.93 -124.56 -0.87952 1.3495 1.9409 1998.9 -0.0076058 2234.6 0.20194
-158.62 2591.0 undefined -144.58 -119.41 -0.86768 710.00 0.0014085 -144.58 -119.41 -0.86768 1.3516 1.9411 2001.7 -0.0076044 2191.6 0.20229 710.00 0.0014085 -144.58 -119.41 -0.86768 1.3516 1.9411 2001.7 -0.0076044 2191.6 0.20229
-157.62 2980.5 undefined -143.22 -114.28 -0.85592 710.00 0.0014085 -143.22 -114.28 -0.85592 1.3537 1.9412 2004.5 -0.0076029 2150.3 0.20265 710.00 0.0014085 -143.22 -114.28 -0.85592 1.3537 1.9412 2004.5 -0.0076029 2150.3 0.20265
-156.62 3368.5 undefined -141.87 -109.16 -0.84424 710.00 0.0014085 -141.87 -109.16 -0.84424 1.3557 1.9414 2007.3 -0.0076013 2110.7 0.20300 710.00 0.0014085 -141.87 -109.16 -0.84424 1.3557 1.9414 2007.3 -0.0076013 2110.7 0.20300
-155.62 3755.0 undefined -140.51 -104.05 -0.83265 710.00 0.0014085 -140.51 -104.05 -0.83265 1.3578 1.9416 2010.0 -0.0075997 2072.7 0.20336 710.00 0.0014085 -140.51 -104.05 -0.83265 1.3578 1.9416 2010.0 -0.0075997 2072.7 0.20336
-154.62 4140.1 undefined -139.15 -98.949 -0.82113 710.00 0.0014085 -139.15 -98.949 -0.82113 1.3599 1.9419 2012.8 -0.0075980 2036.1 0.20371 710.00 0.0014085 -139.15 -98.949 -0.82113 1.3599 1.9419 2012.8 -0.0075980 2036.1 0.20371
-153.62 4523.7 undefined -137.79 -93.862 -0.80970 710.00 0.0014085 -137.79 -93.862 -0.80970 1.3620 1.9421 2015.6 -0.0075963 2001.0 0.20407 710.00 0.0014085 -137.79 -93.862 -0.80970 1.3620 1.9421 2015.6 -0.0075963 2001.0 0.20407
-152.62 4905.9 undefined -136.43 -88.788 -0.79834 710.00 0.0014085 -136.43 -88.788 -0.79834 1.3641 1.9423 2018.3 -0.0075946 1967.2 0.20442 710.00 0.0014085 -136.43 -88.788 -0.79834 1.3641 1.9423 2018.3 -0.0075946 1967.2 0.20442
-151.62 5286.7 undefined -135.06 -83.724 -0.78706 710.00 0.0014085 -135.06 -83.724 -0.78706 1.3661 1.9426 2021.0 -0.0075928 1934.6 0.20478 710.00 0.0014085 -135.06 -83.724 -0.78706 1.3661 1.9426 2021.0 -0.0075928 1934.6 0.20478
-150.62 5666.1 undefined -133.70 -78.673 -0.77586 710.00 0.0014085 -133.70 -78.673 -0.77586 1.3682 1.9429 2023.7 -0.0075910 1903.3 0.20514 710.00 0.0014085 -133.70 -78.673 -0.77586 1.3682 1.9429 2023.7 -0.0075910 1903.3 0.20514
-149.62 6044.2 undefined -132.33 -73.632 -0.76473 710.00 0.0014085 -132.33 -73.632 -0.76473 1.3702 1.9432 2026.4 -0.0075892 1873.0 0.20550 710.00 0.0014085 -132.33 -73.632 -0.76473 1.3702 1.9432 2026.4 -0.0075892 1873.0 0.20550
-148.62 6420.9 undefined -130.96 -68.603 -0.75367 710.00 0.0014085 -130.96 -68.603 -0.75367 1.3723 1.9435 2029.1 -0.0075873 1843.9 0.20585 710.00 0.0014085 -130.96 -68.603 -0.75367 1.3723 1.9435 2029.1 -0.0075873 1843.9 0.20585
-147.62 6796.3 undefined -129.58 -63.584 -0.74269 710.00 0.0014085 -129.58 -63.584 -0.74269 1.3744 1.9438 2031.7 -0.0075853 1815.8 0.20621 710.00 0.0014085 -129.58 -63.584 -0.74269 1.3744 1.9438 2031.7 -0.0075853 1815.8 0.20621
-146.62 7170.3 undefined -128.21 -58.577 -0.73177 710.00 0.0014085 -128.21 -58.577 -0.73177 1.3764 1.9441 2034.4 -0.0075834 1788.6 0.20657 710.00 0.0014085 -128.21 -58.577 -0.73177 1.3764 1.9441 2034.4 -0.0075834 1788.6 0.20657
-145.62 7543.0 undefined -126.83 -53.580 -0.72093 710.00 0.0014085 -126.83 -53.580 -0.72093 1.3785 1.9444 2037.0 -0.0075814 1762.4 0.20693 710.00 0.0014085 -126.83 -53.580 -0.72093 1.3785 1.9444 2037.0 -0.0075814 1762.4 0.20693
-144.62 7914.5 undefined -125.45 -48.593 -0.71016 710.00 0.0014085 -125.45 -48.593 -0.71016 1.3805 1.9448 2039.6 -0.0075793 1737.1 0.20729 710.00 0.0014085 -125.45 -48.593 -0.71016 1.3805 1.9448 2039.6 -0.0075793 1737.1 0.20729
-143.62 8284.6 undefined -124.07 -43.617 -0.69945 710.00 0.0014085 -124.07 -43.617 -0.69945 1.3826 1.9452 2042.2 -0.0075773 1712.6 0.20765 710.00 0.0014085 -124.07 -43.617 -0.69945 1.3826 1.9452 2042.2 -0.0075773 1712.6 0.20765
-142.62 8653.5 undefined -122.68 -38.652 -0.68881 710.00 0.0014085 -122.68 -38.652 -0.68881 1.3846 1.9455 2044.8 -0.0075752 1688.8 0.20801 710.00 0.0014085 -122.68 -38.652 -0.68881 1.3846 1.9455 2044.8 -0.0075752 1688.8 0.20801
-141.62 9021.1 undefined -121.30 -33.696 -0.67823 710.00 0.0014085 -121.30 -33.696 -0.67823 1.3867 1.9459 2047.3 -0.0075730 1665.9 0.20837 710.00 0.0014085 -121.30 -33.696 -0.67823 1.3867 1.9459 2047.3 -0.0075730 1665.9 0.20837
-140.62 9387.5 undefined -119.91 -28.751 -0.66772 710.00 0.0014085 -119.91 -28.751 -0.66772 1.3887 1.9463 2049.8 -0.0075709 1643.7 0.20873 710.00 0.0014085 -119.91 -28.751 -0.66772 1.3887 1.9463 2049.8 -0.0075709 1643.7 0.20873
-139.62 9752.6 undefined -118.52 -23.815 -0.65727 710.00 0.0014085 -118.52 -23.815 -0.65727 1.3907 1.9467 2052.4 -0.0075686 1622.2 0.20909 710.00 0.0014085 -118.52 -23.815 -0.65727 1.3907 1.9467 2052.4 -0.0075686 1622.2 0.20909
-138.62 10116. undefined -117.13 -18.890 -0.64689 710.00 0.0014085 -117.13 -18.890 -0.64689 1.3928 1.9472 2054.9 -0.0075664 1601.3 0.20945 710.00 0.0014085 -117.13 -18.890 -0.64689 1.3928 1.9472 2054.9 -0.0075664 1601.3 0.20945
-137.62 10479. undefined -115.74 -13.974 -0.63657 710.00 0.0014085 -115.74 -13.974 -0.63657 1.3948 1.9476 2057.3 -0.0075641 1581.1 0.20981 710.00 0.0014085 -115.74 -13.974 -0.63657 1.3948 1.9476 2057.3 -0.0075641 1581.1 0.20981
-136.62 10841. undefined -114.34 -9.0675 -0.62630 710.00 0.0014085 -114.34 -9.0675 -0.62630 1.3969 1.9480 2059.8 -0.0075618 1561.5 0.21017 710.00 0.0014085 -114.34 -9.0675 -0.62630 1.3969 1.9480 2059.8 -0.0075618 1561.5 0.21017
-135.62 11201. undefined -112.94 -4.1708 -0.61610 710.00 0.0014085 -112.94 -4.1708 -0.61610 1.3989 1.9485 2062.2 -0.0075594 1542.5 0.21053 710.00 0.0014085 -112.94 -4.1708 -0.61610 1.3989 1.9485 2062.2 -0.0075594 1542.5 0.21053
-134.62 11560. undefined -111.54 0.71653 -0.60596 710.00 0.0014085 -111.54 0.71653 -0.60596 1.4010 1.9490 2064.7 -0.0075570 1524.0 0.21089 710.00 0.0014085 -111.54 0.71653 -0.60596 1.4010 1.9490 2064.7 -0.0075570 1524.0 0.21089
-133.62 11918. undefined -110.14 5.5945 -0.59588 710.00 0.0014085 -110.14 5.5945 -0.59588 1.4030 1.9495 2067.1 -0.0075545 1506.1 0.21125 710.00 0.0014085 -110.14 5.5945 -0.59588 1.4030 1.9495 2067.1 -0.0075545 1506.1 0.21125
-132.62 12275. undefined -108.74 10.463 -0.58585 710.00 0.0014085 -108.74 10.463 -0.58585 1.4051 1.9500 2069.5 -0.0075521 1488.7 0.21162 710.00 0.0014085 -108.74 10.463 -0.58585 1.4051 1.9500 2069.5 -0.0075521 1488.7 0.21162
-131.62 12630. undefined -107.33 15.323 -0.57588 710.00 0.0014085 -107.33 15.323 -0.57588 1.4072 1.9505 2071.8 -0.0075495 1471.7 0.21198 710.00 0.0014085 -107.33 15.323 -0.57588 1.4072 1.9505 2071.8 -0.0075495 1471.7 0.21198
-130.62 12985. undefined -105.92 20.174 -0.56596 710.00 0.0014085 -105.92 20.174 -0.56596 1.4092 1.9510 2074.2 -0.0075469 1455.3 0.21234 710.00 0.0014085 -105.92 20.174 -0.56596 1.4092 1.9510 2074.2 -0.0075469 1455.3 0.21234
-129.62 13338. undefined -104.51 25.015 -0.55610 710.00 0.0014085 -104.51 25.015 -0.55610 1.4113 1.9516 2076.5 -0.0075443 1439.3 0.21270 710.00 0.0014085 -104.51 25.015 -0.55610 1.4113 1.9516 2076.5 -0.0075443 1439.3 0.21270
-128.62 13691. undefined -103.10 29.848 -0.54630 710.00 0.0014085 -103.10 29.848 -0.54630 1.4134 1.9521 2078.8 -0.0075417 1423.7 0.21307 710.00 0.0014085 -103.10 29.848 -0.54630 1.4134 1.9521 2078.8 -0.0075417 1423.7 0.21307
-127.62 14042. undefined -101.69 34.673 -0.53654 710.00 0.0014085 -101.69 34.673 -0.53654 1.4154 1.9527 2081.1 -0.0075390 1408.6 0.21343 710.00 0.0014085 -101.69 34.673 -0.53654 1.4154 1.9527 2081.1 -0.0075390 1408.6 0.21343
-126.62 14392. undefined -100.27 39.488 -0.52684 710.00 0.0014085 -100.27 39.488 -0.52684 1.4175 1.9533 2083.4 -0.0075362 1393.8 0.21380 710.00 0.0014085 -100.27 39.488 -0.52684 1.4175 1.9533 2083.4 -0.0075362 1393.8 0.21380
-125.62 14741. undefined -98.850 44.295 -0.51719 710.00 0.0014085 -98.850 44.295 -0.51719 1.4196 1.9539 2085.7 -0.0075334 1379.5 0.21416 710.00 0.0014085 -98.850 44.295 -0.51719 1.4196 1.9539 2085.7 -0.0075334 1379.5 0.21416
-124.62 15089. undefined -97.429 49.094 -0.50760 710.00 0.0014085 -97.429 49.094 -0.50760 1.4217 1.9545 2087.9 -0.0075305 1365.5 0.21453 710.00 0.0014085 -97.429 49.094 -0.50760 1.4217 1.9545 2087.9 -0.0075305 1365.5 0.21453
-123.62 15435. undefined -96.007 53.884 -0.49805 710.00 0.0014085 -96.007 53.884 -0.49805 1.4238 1.9551 2090.2 -0.0075276 1351.8 0.21489 710.00 0.0014085 -96.007 53.884 -0.49805 1.4238 1.9551 2090.2 -0.0075276 1351.8 0.21489
-122.62 15781. undefined -94.582 58.666 -0.48855 710.00 0.0014085 -94.582 58.666 -0.48855 1.4259 1.9558 2092.4 -0.0075247 1338.6 0.21526 710.00 0.0014085 -94.582 58.666 -0.48855 1.4259 1.9558 2092.4 -0.0075247 1338.6 0.21526
-121.62 16126. undefined -93.155 63.440 -0.47910 710.00 0.0014085 -93.155 63.440 -0.47910 1.4280 1.9564 2094.6 -0.0075217 1325.6 0.21562 710.00 0.0014085 -93.155 63.440 -0.47910 1.4280 1.9564 2094.6 -0.0075217 1325.6 0.21562
-120.62 16469. undefined -91.726 68.206 -0.46970 710.00 0.0014085 -91.726 68.206 -0.46970 1.4301 1.9571 2096.7 -0.0075186 1313.0 0.21599 710.00 0.0014085 -91.726 68.206 -0.46970 1.4301 1.9571 2096.7 -0.0075186 1313.0 0.21599
-119.62 16812. undefined -90.295 72.963 -0.46035 710.00 0.0014085 -90.295 72.963 -0.46035 1.4322 1.9578 2098.9 -0.0075155 1300.6 0.21635 710.00 0.0014085 -90.295 72.963 -0.46035 1.4322 1.9578 2098.9 -0.0075155 1300.6 0.21635
-118.62 17153. undefined -88.861 77.713 -0.45105 710.00 0.0014085 -88.861 77.713 -0.45105 1.4343 1.9585 2101.0 -0.0075123 1288.6 0.21672 710.00 0.0014085 -88.861 77.713 -0.45105 1.4343 1.9585 2101.0 -0.0075123 1288.6 0.21672
-117.62 17494. undefined -87.426 82.455 -0.44179 710.00 0.0014085 -87.426 82.455 -0.44179 1.4365 1.9592 2103.2 -0.0075091 1276.9 0.21709 710.00 0.0014085 -87.426 82.455 -0.44179 1.4365 1.9592 2103.2 -0.0075091 1276.9 0.21709
-116.62 17833. undefined -85.988 87.190 -0.43257 710.00 0.0014085 -85.988 87.190 -0.43257 1.4386 1.9600 2105.3 -0.0075058 1265.4 0.21745 710.00 0.0014085 -85.988 87.190 -0.43257 1.4386 1.9600 2105.3 -0.0075058 1265.4 0.21745
-115.62 18172. undefined -84.549 91.916 -0.42340 710.00 0.0014085 -84.549 91.916 -0.42340 1.4408 1.9607 2107.4 -0.0075025 1254.2 0.21782 710.00 0.0014085 -84.549 91.916 -0.42340 1.4408 1.9607 2107.4 -0.0075025 1254.2 0.21782
-114.62 18509. undefined -83.107 96.635 -0.41428 710.00 0.0014085 -83.107 96.635 -0.41428 1.4429 1.9615 2109.4 -0.0074991 1243.3 0.21819 710.00 0.0014085 -83.107 96.635 -0.41428 1.4429 1.9615 2109.4 -0.0074991 1243.3 0.21819
-113.62 18846. undefined -81.663 101.35 -0.40520 710.00 0.0014085 -81.663 101.35 -0.40520 1.4451 1.9623 2111.5 -0.0074957 1232.6 0.21856 710.00 0.0014085 -81.663 101.35 -0.40520 1.4451 1.9623 2111.5 -0.0074957 1232.6 0.21856
-112.62 19181. undefined -80.217 106.05 -0.39616 710.00 0.0014085 -80.217 106.05 -0.39616 1.4473 1.9631 2113.6 -0.0074922 1222.2 0.21892 710.00 0.0014085 -80.217 106.05 -0.39616 1.4473 1.9631 2113.6 -0.0074922 1222.2 0.21892
-111.62 19516. undefined -78.768 110.75 -0.38717 710.00 0.0014085 -78.768 110.75 -0.38717 1.4495 1.9639 2115.6 -0.0074886 1212.0 0.21929 710.00 0.0014085 -78.768 110.75 -0.38717 1.4495 1.9639 2115.6 -0.0074886 1212.0 0.21929
-110.62 19849. undefined -77.318 115.44 -0.37821 710.00 0.0014085 -77.318 115.44 -0.37821 1.4517 1.9648 2117.6 -0.0074849 1202.0 0.21966 710.00 0.0014085 -77.318 115.44 -0.37821 1.4517 1.9648 2117.6 -0.0074849 1202.0 0.21966
-109.62 20182. undefined -75.865 120.12 -0.36930 710.00 0.0014085 -75.865 120.12 -0.36930 1.4539 1.9657 2119.6 -0.0074812 1192.3 0.22003 710.00 0.0014085 -75.865 120.12 -0.36930 1.4539 1.9657 2119.6 -0.0074812 1192.3 0.22003
-108.62 20513. undefined -74.410 124.79 -0.36043 710.00 0.0014085 -74.410 124.79 -0.36043 1.4561 1.9665 2121.6 -0.0074775 1182.7 0.22040 710.00 0.0014085 -74.410 124.79 -0.36043 1.4561 1.9665 2121.6 -0.0074775 1182.7 0.22040
-107.62 20844. undefined -72.953 129.46 -0.35160 710.00 0.0014085 -72.953 129.46 -0.35160 1.4583 1.9675 2123.6 -0.0074737 1173.4 0.22077 710.00 0.0014085 -72.953 129.46 -0.35160 1.4583 1.9675 2123.6 -0.0074737 1173.4 0.22077
-106.62 21174. undefined -71.494 134.12 -0.34281 710.00 0.0014085 -71.494 134.12 -0.34281 1.4605 1.9684 2125.5 -0.0074698 1164.3 0.22114 710.00 0.0014085 -71.494 134.12 -0.34281 1.4605 1.9684 2125.5 -0.0074698 1164.3 0.22114
-105.62 21503. undefined -70.032 138.78 -0.33406 710.00 0.0014085 -70.032 138.78 -0.33406 1.4628 1.9693 2127.5 -0.0074658 1155.3 0.22151 710.00 0.0014085 -70.032 138.78 -0.33406 1.4628 1.9693 2127.5 -0.0074658 1155.3 0.22151
-104.62 21831. undefined -68.568 143.43 -0.32535 710.00 0.0014085 -68.568 143.43 -0.32535 1.4650 1.9703 2129.4 -0.0074618 1146.6 0.22188 710.00 0.0014085 -68.568 143.43 -0.32535 1.4650 1.9703 2129.4 -0.0074618 1146.6 0.22188
-103.62 22157. undefined -67.102 148.07 -0.31668 710.00 0.0014085 -67.102 148.07 -0.31668 1.4673 1.9713 2131.3 -0.0074577 1138.0 0.22225 710.00 0.0014085 -67.102 148.07 -0.31668 1.4673 1.9713 2131.3 -0.0074577 1138.0 0.22225
