Temperature (C) Pressure (psia) Quality (l+v) Internal Energy (l+v, kJ/kg) Enthalpy (l+v, kJ/kg) Entropy (l+v, J/g*K) Density (l, kg/m3) Volume (l, m3/kg) Internal Energy (l, kJ/kg) Enthalpy (l, kJ/kg) Entropy (l, J/g*K) Cv (l, J/g*K) Cp (l, J/g*K) Sound Spd. (l, m/s) Joule-Thomson (l, F/psia) Viscosity (l, uPa*s) Therm. Cond. (l, W/m*K) Density (v, kg/m3) Volume (v, m3/kg) Internal Energy (v, kJ/kg) Enthalpy (v, kJ/kg) Entropy (v, J/g*K) Cv (v, J/g*K) Cp (v, J/g*K) Sound Spd. (v, m/s) Joule-Thomson (v, F/psia) Viscosity (v, uPa*s) Therm. Cond. (v, W/m*K)
-187.62 2.4953e-08 3.6890e-13 -196.64 -196.64 -1.3959 733.13 0.0013640 -196.64 -196.64 -1.3959 1.3553 1.9158 2136.4 -0.0077592 10960. 0.20792 1.0669e-08 9.3732e+07 350.13 366.26 5.1858 0.69067 0.87923 143.28 6.1051 2.3259 0.0017061
-186.62 3.7339e-08 5.1495e-13 -194.73 -194.73 -1.3736 732.08 0.0013660 -194.73 -194.73 -1.3736 1.3539 1.9166 2129.6 -0.0077546 10073. 0.20765 1.5780e-08 6.3371e+07 350.82 367.14 5.1200 0.69462 0.88317 144.03 5.9178 2.3534 0.0017533
-185.62 5.5322e-08 7.0921e-13 -192.81 -192.81 -1.3516 731.04 0.0013679 -192.81 -192.81 -1.3516 1.3525 1.9174 2122.9 -0.0077498 9276.1 0.20737 2.3112e-08 4.3267e+07 351.52 368.02 5.0561 0.69857 0.88713 144.77 5.7383 2.3808 0.0018007
-184.62 8.1182e-08 9.6358e-13 -190.89 -190.89 -1.3298 730.00 0.0013699 -190.89 -190.89 -1.3298 1.3513 1.9182 2116.1 -0.0077448 8557.8 0.20708 3.3533e-08 2.9821e+07 352.22 368.91 4.9939 0.70253 0.89108 145.51 5.5662 2.4083 0.0018485
-183.62 1.1803e-07 1.2912e-12 -188.97 -188.97 -1.3083 728.96 0.0013718 -188.97 -188.97 -1.3083 1.3501 1.9191 2109.3 -0.0077395 7909.8 0.20678 4.8211e-08 2.0742e+07 352.92 369.81 4.9333 0.70648 0.89504 146.24 5.4011 2.4357 0.0018965
-182.62 1.7009e-07 1.7056e-12 -187.05 -187.05 -1.2869 727.92 0.0013738 -187.05 -187.05 -1.2869 1.3490 1.9201 2102.5 -0.0077340 7324.3 0.20647 6.8704e-08 1.4555e+07 353.63 370.70 4.8744 0.71043 0.89899 146.97 5.2426 2.4632 0.0019448
-181.62 2.4299e-07 2.2198e-12 -185.13 -185.13 -1.2658 726.88 0.0013757 -185.13 -185.13 -1.2658 1.3480 1.9210 2095.7 -0.0077283 6794.5 0.20616 9.7079e-08 1.0301e+07 354.35 371.60 4.8170 0.71438 0.90294 147.69 5.0904 2.4906 0.0019934
-180.62 3.4425e-07 2.8439e-12 -183.21 -183.21 -1.2450 725.85 0.0013777 -183.21 -183.21 -1.2450 1.3470 1.9220 2088.9 -0.0077225 6314.4 0.20584 1.3605e-07 7.3504e+06 355.06 372.51 4.7612 0.71833 0.90688 148.41 4.9442 2.5181 0.0020423
-179.62 4.8378e-07 3.5821e-12 -181.29 -181.29 -1.2243 724.81 0.0013797 -181.29 -181.29 -1.2243 1.3461 1.9231 2082.0 -0.0077164 5878.8 0.20551 1.8915e-07 5.2868e+06 355.78 373.42 4.7068 0.72227 0.91082 149.13 4.8038 2.5456 0.0020915
-178.62 6.7459e-07 4.4283e-12 -179.37 -179.37 -1.2038 723.78 0.0013816 -179.37 -179.37 -1.2038 1.3453 1.9241 2075.2 -0.0077102 5482.9 0.20517 2.6096e-07 3.8320e+06 356.51 374.33 4.6538 0.72620 0.91475 149.84 4.6688 2.5731 0.0021410
-177.62 9.3358e-07 5.3596e-12 -177.44 -177.44 -1.1836 722.75 0.0013836 -177.44 -177.44 -1.1836 1.3445 1.9252 2068.4 -0.0077039 5122.6 0.20483 3.5737e-07 2.7982e+06 357.23 375.25 4.6022 0.73012 0.91867 150.54 4.5390 2.6005 0.0021907
-176.62 1.2826e-06 6.3271e-12 -175.52 -175.52 -1.1635 721.72 0.0013856 -175.52 -175.52 -1.1635 1.3437 1.9263 2061.5 -0.0076973 4794.1 0.20447 4.8588e-07 2.0581e+06 357.97 376.17 4.5519 0.73403 0.92258 151.25 4.4142 2.6280 0.0022408
-175.62 1.7496e-06 7.2445e-12 -173.59 -173.59 -1.1437 720.69 0.0013876 -173.59 -173.59 -1.1437 1.3430 1.9274 2054.7 -0.0076907 4494.3 0.20411 6.5601e-07 1.5244e+06 358.70 377.09 4.5029 0.73792 0.92648 151.95 4.2941 2.6555 0.0022912
-174.62 2.3705e-06 7.9715e-12 -171.66 -171.66 -1.1240 719.66 0.0013895 -171.66 -171.66 -1.1240 1.3423 1.9286 2047.9 -0.0076838 4220.2 0.20375 8.7976e-07 1.1367e+06 359.44 378.02 4.4551 0.74181 0.93036 152.64 4.1784 2.6830 0.0023418
-173.62 3.1903e-06 8.2930e-12 -169.73 -169.73 -1.1045 718.64 0.0013915 -169.73 -169.73 -1.1045 1.3417 1.9298 2041.0 -0.0076769 3969.3 0.20338 1.1721e-06 8.5314e+05 360.19 378.95 4.4085 0.74568 0.93423 153.33 4.0671 2.7105 0.0023928
-172.62 4.2661e-06 7.8920e-12 -167.80 -167.80 -1.0852 717.61 0.0013935 -167.80 -167.80 -1.0852 1.3411 1.9310 2034.2 -0.0076698 3739.3 0.20300 1.5518e-06 6.4441e+05 360.93 379.89 4.3631 0.74953 0.93809 154.02 3.9599 2.7379 0.0024440
-171.62 5.6692e-06 6.3147e-12 -165.87 -165.87 -1.0661 716.58 0.0013955 -165.87 -165.87 -1.0661 1.3405 1.9322 2027.3 -0.0076625 3528.0 0.20261 2.0419e-06 4.8974e+05 361.69 380.83 4.3188 0.75337 0.94193 154.71 3.8566 2.7654 0.0024955
-170.62 7.4884e-06 2.9263e-12 -163.94 -163.94 -1.0472 715.56 0.0013975 -163.94 -163.94 -1.0472 1.3400 1.9334 2020.5 -0.0076552 3333.8 0.20222 2.6708e-06 3.7442e+05 362.44 381.77 4.2755 0.75720 0.94575 155.39 3.7570 2.7929 0.0025473
-169.62 188.79 undefined -162.27 -160.45 -1.0310 715.00 0.0013986 -162.27 -160.45 -1.0310 1.3407 1.9341 2018.0 -0.0076503 3194.9 0.20217 715.00 0.0013986 -162.27 -160.45 -1.0310 1.3407 1.9341 2018.0 -0.0076503 3194.9 0.20217
-168.62 605.06 undefined -160.93 -155.09 -1.0181 715.00 0.0013986 -160.93 -155.09 -1.0181 1.3428 1.9342 2020.9 -0.0076486 3111.7 0.20254 715.00 0.0013986 -160.93 -155.09 -1.0181 1.3428 1.9342 2020.9 -0.0076486 3111.7 0.20254
-167.62 1019.5 undefined -159.59 -149.75 -1.0053 715.00 0.0013986 -159.59 -149.75 -1.0053 1.3448 1.9344 2023.8 -0.0076468 3032.6 0.20291 715.00 0.0013986 -159.59 -149.75 -1.0053 1.3448 1.9344 2023.8 -0.0076468 3032.6 0.20291
-166.62 1432.3 undefined -158.24 -144.43 -0.99260 715.00 0.0013986 -158.24 -144.43 -0.99260 1.3469 1.9345 2026.7 -0.0076449 2957.4 0.20328 715.00 0.0013986 -158.24 -144.43 -0.99260 1.3469 1.9345 2026.7 -0.0076449 2957.4 0.20328
-165.62 1843.3 undefined -156.89 -139.12 -0.98000 715.00 0.0013986 -156.89 -139.12 -0.98000 1.3490 1.9347 2029.5 -0.0076430 2885.9 0.20365 715.00 0.0013986 -156.89 -139.12 -0.98000 1.3490 1.9347 2029.5 -0.0076430 2885.9 0.20365
-164.62 2252.7 undefined -155.54 -133.82 -0.96750 715.00 0.0013986 -155.54 -133.82 -0.96750 1.3511 1.9349 2032.4 -0.0076410 2817.7 0.20403 715.00 0.0013986 -155.54 -133.82 -0.96750 1.3511 1.9349 2032.4 -0.0076410 2817.7 0.20403
-163.62 2660.3 undefined -154.19 -128.54 -0.95510 715.00 0.0013986 -154.19 -128.54 -0.95510 1.3531 1.9351 2035.3 -0.0076389 2752.7 0.20440 715.00 0.0013986 -154.19 -128.54 -0.95510 1.3531 1.9351 2035.3 -0.0076389 2752.7 0.20440
-162.62 3066.4 undefined -152.84 -123.27 -0.94279 715.00 0.0013986 -152.84 -123.27 -0.94279 1.3552 1.9354 2038.1 -0.0076368 2690.7 0.20477 715.00 0.0013986 -152.84 -123.27 -0.94279 1.3552 1.9354 2038.1 -0.0076368 2690.7 0.20477
-161.62 3470.8 undefined -151.48 -118.01 -0.93058 715.00 0.0013986 -151.48 -118.01 -0.93058 1.3572 1.9356 2041.0 -0.0076347 2631.4 0.20515 715.00 0.0013986 -151.48 -118.01 -0.93058 1.3572 1.9356 2041.0 -0.0076347 2631.4 0.20515
-160.62 3873.6 undefined -150.12 -112.77 -0.91845 715.00 0.0013986 -150.12 -112.77 -0.91845 1.3593 1.9359 2043.8 -0.0076325 2574.8 0.20552 715.00 0.0013986 -150.12 -112.77 -0.91845 1.3593 1.9359 2043.8 -0.0076325 2574.8 0.20552
-159.62 4274.9 undefined -148.76 -107.54 -0.90642 715.00 0.0013986 -148.76 -107.54 -0.90642 1.3614 1.9362 2046.6 -0.0076303 2520.7 0.20589 715.00 0.0013986 -148.76 -107.54 -0.90642 1.3614 1.9362 2046.6 -0.0076303 2520.7 0.20589
-158.62 4674.6 undefined -147.40 -102.32 -0.89447 715.00 0.0013986 -147.40 -102.32 -0.89447 1.3634 1.9365 2049.5 -0.0076280 2468.9 0.20627 715.00 0.0013986 -147.40 -102.32 -0.89447 1.3634 1.9365 2049.5 -0.0076280 2468.9 0.20627
-157.62 5072.7 undefined -146.03 -97.117 -0.88261 715.00 0.0013986 -146.03 -97.117 -0.88261 1.3654 1.9368 2052.3 -0.0076257 2419.4 0.20664 715.00 0.0013986 -146.03 -97.117 -0.88261 1.3654 1.9368 2052.3 -0.0076257 2419.4 0.20664
-156.62 5469.4 undefined -144.67 -91.926 -0.87083 715.00 0.0013986 -144.67 -91.926 -0.87083 1.3675 1.9371 2055.0 -0.0076234 2371.8 0.20702 715.00 0.0013986 -144.67 -91.926 -0.87083 1.3675 1.9371 2055.0 -0.0076234 2371.8 0.20702
-155.62 5864.5 undefined -143.30 -86.747 -0.85914 715.00 0.0013986 -143.30 -86.747 -0.85914 1.3695 1.9375 2057.8 -0.0076211 2326.3 0.20739 715.00 0.0013986 -143.30 -86.747 -0.85914 1.3695 1.9375 2057.8 -0.0076211 2326.3 0.20739
-154.62 6258.2 undefined -141.93 -81.580 -0.84752 715.00 0.0013986 -141.93 -81.580 -0.84752 1.3716 1.9378 2060.6 -0.0076187 2282.6 0.20777 715.00 0.0013986 -141.93 -81.580 -0.84752 1.3716 1.9378 2060.6 -0.0076187 2282.6 0.20777
-153.62 6650.4 undefined -140.56 -76.426 -0.83599 715.00 0.0013986 -140.56 -76.426 -0.83599 1.3736 1.9382 2063.3 -0.0076163 2240.6 0.20814 715.00 0.0013986 -140.56 -76.426 -0.83599 1.3736 1.9382 2063.3 -0.0076163 2240.6 0.20814
-152.62 7041.1 undefined -139.18 -71.283 -0.82454 715.00 0.0013986 -139.18 -71.283 -0.82454 1.3756 1.9385 2066.0 -0.0076138 2200.2 0.20852 715.00 0.0013986 -139.18 -71.283 -0.82454 1.3756 1.9385 2066.0 -0.0076138 2200.2 0.20852
-151.62 7430.5 undefined -137.80 -66.152 -0.81316 715.00 0.0013986 -137.80 -66.152 -0.81316 1.3777 1.9389 2068.7 -0.0076114 2161.5 0.20889 715.00 0.0013986 -137.80 -66.152 -0.81316 1.3777 1.9389 2068.7 -0.0076114 2161.5 0.20889
-150.62 7818.4 undefined -136.43 -61.033 -0.80186 715.00 0.0013986 -136.43 -61.033 -0.80186 1.3797 1.9393 2071.4 -0.0076089 2124.2 0.20927 715.00 0.0013986 -136.43 -61.033 -0.80186 1.3797 1.9393 2071.4 -0.0076089 2124.2 0.20927
-149.62 8204.9 undefined -135.04 -55.925 -0.79064 715.00 0.0013986 -135.04 -55.925 -0.79064 1.3817 1.9397 2074.0 -0.0076064 2088.3 0.20965 715.00 0.0013986 -135.04 -55.925 -0.79064 1.3817 1.9397 2074.0 -0.0076064 2088.3 0.20965
-148.62 8590.0 undefined -133.66 -50.828 -0.77949 715.00 0.0013986 -133.66 -50.828 -0.77949 1.3838 1.9401 2076.7 -0.0076038 2053.7 0.21002 715.00 0.0013986 -133.66 -50.828 -0.77949 1.3838 1.9401 2076.7 -0.0076038 2053.7 0.21002
-147.62 8973.8 undefined -132.28 -45.743 -0.76842 715.00 0.0013986 -132.28 -45.743 -0.76842 1.3858 1.9406 2079.3 -0.0076013 2020.4 0.21040 715.00 0.0013986 -132.28 -45.743 -0.76842 1.3858 1.9406 2079.3 -0.0076013 2020.4 0.21040
-146.62 9356.2 undefined -130.89 -40.669 -0.75741 715.00 0.0013986 -130.89 -40.669 -0.75741 1.3878 1.9410 2081.9 -0.0075987 1988.3 0.21078 715.00 0.0013986 -130.89 -40.669 -0.75741 1.3878 1.9410 2081.9 -0.0075987 1988.3 0.21078
-145.62 9737.2 undefined -129.50 -35.605 -0.74648 715.00 0.0013986 -129.50 -35.605 -0.74648 1.3898 1.9414 2084.5 -0.0075961 1957.3 0.21116 715.00 0.0013986 -129.50 -35.605 -0.74648 1.3898 1.9414 2084.5 -0.0075961 1957.3 0.21116
-144.62 10117. undefined -128.11 -30.553 -0.73561 715.00 0.0013986 -128.11 -30.553 -0.73561 1.3919 1.9419 2087.1 -0.0075934 1927.4 0.21154 715.00 0.0013986 -128.11 -30.553 -0.73561 1.3919 1.9419 2087.1 -0.0075934 1927.4 0.21154
-143.62 10495. undefined -126.72 -25.511 -0.72482 715.00 0.0013986 -126.72 -25.511 -0.72482 1.3939 1.9424 2089.6 -0.0075908 1898.5 0.21191 715.00 0.0013986 -126.72 -25.511 -0.72482 1.3939 1.9424 2089.6 -0.0075908 1898.5 0.21191
-142.62 10872. undefined -125.32 -20.480 -0.71409 715.00 0.0013986 -125.32 -20.480 -0.71409 1.3959 1.9428 2092.2 -0.0075881 1870.6 0.21229 715.00 0.0013986 -125.32 -20.480 -0.71409 1.3959 1.9428 2092.2 -0.0075881 1870.6 0.21229
-141.62 11248. undefined -123.93 -15.459 -0.70343 715.00 0.0013986 -123.93 -15.459 -0.70343 1.3980 1.9433 2094.7 -0.0075854 1843.7 0.21267 715.00 0.0013986 -123.93 -15.459 -0.70343 1.3980 1.9433 2094.7 -0.0075854 1843.7 0.21267
-140.62 11623. undefined -122.53 -10.449 -0.69283 715.00 0.0013986 -122.53 -10.449 -0.69283 1.4000 1.9438 2097.2 -0.0075827 1817.6 0.21305 715.00 0.0013986 -122.53 -10.449 -0.69283 1.4000 1.9438 2097.2 -0.0075827 1817.6 0.21305
-139.62 11996. undefined -121.13 -5.4483 -0.68230 715.00 0.0013986 -121.13 -5.4483 -0.68230 1.4020 1.9443 2099.6 -0.0075799 1792.4 0.21343 715.00 0.0013986 -121.13 -5.4483 -0.68230 1.4020 1.9443 2099.6 -0.0075799 1792.4 0.21343
-138.62 12368. undefined -119.72 -0.45816 -0.67183 715.00 0.0013986 -119.72 -0.45816 -0.67183 1.4040 1.9448 2102.1 -0.0075771 1768.0 0.21381 715.00 0.0013986 -119.72 -0.45816 -0.67183 1.4040 1.9448 2102.1 -0.0075771 1768.0 0.21381
-137.62 12739. undefined -118.32 4.5220 -0.66143 715.00 0.0013986 -118.32 4.5220 -0.66143 1.4061 1.9454 2104.5 -0.0075743 1744.3 0.21419 715.00 0.0013986 -118.32 4.5220 -0.66143 1.4061 1.9454 2104.5 -0.0075743 1744.3 0.21419
-136.62 13108. undefined -116.91 9.4923 -0.65108 715.00 0.0013986 -116.91 9.4923 -0.65108 1.4081 1.9459 2106.9 -0.0075714 1721.4 0.21457 715.00 0.0013986 -116.91 9.4923 -0.65108 1.4081 1.9459 2106.9 -0.0075714 1721.4 0.21457
-135.62 13477. undefined -115.50 14.453 -0.64080 715.00 0.0013986 -115.50 14.453 -0.64080 1.4101 1.9464 2109.3 -0.0075686 1699.2 0.21495 715.00 0.0013986 -115.50 14.453 -0.64080 1.4101 1.9464 2109.3 -0.0075686 1699.2 0.21495
-134.62 13844. undefined -114.09 19.404 -0.63058 715.00 0.0013986 -114.09 19.404 -0.63058 1.4122 1.9470 2111.7 -0.0075656 1677.7 0.21533 715.00 0.0013986 -114.09 19.404 -0.63058 1.4122 1.9470 2111.7 -0.0075656 1677.7 0.21533
-133.62 14209. undefined -112.68 24.345 -0.62041 715.00 0.0013986 -112.68 24.345 -0.62041 1.4142 1.9476 2114.1 -0.0075627 1656.8 0.21572 715.00 0.0013986 -112.68 24.345 -0.62041 1.4142 1.9476 2114.1 -0.0075627 1656.8 0.21572
-132.62 14574. undefined -111.26 29.277 -0.61030 715.00 0.0013986 -111.26 29.277 -0.61030 1.4162 1.9482 2116.4 -0.0075597 1636.6 0.21610 715.00 0.0013986 -111.26 29.277 -0.61030 1.4162 1.9482 2116.4 -0.0075597 1636.6 0.21610
-131.62 14938. undefined -109.85 34.199 -0.60025 715.00 0.0013986 -109.85 34.199 -0.60025 1.4183 1.9488 2118.7 -0.0075567 1616.9 0.21648 715.00 0.0013986 -109.85 34.199 -0.60025 1.4183 1.9488 2118.7 -0.0075567 1616.9 0.21648
-130.62 15300. undefined -108.43 39.112 -0.59026 715.00 0.0013986 -108.43 39.112 -0.59026 1.4203 1.9494 2121.1 -0.0075537 1597.8 0.21686 715.00 0.0013986 -108.43 39.112 -0.59026 1.4203 1.9494 2121.1 -0.0075537 1597.8 0.21686
-129.62 15661. undefined -107.00 44.016 -0.58032 715.00 0.0013986 -107.00 44.016 -0.58032 1.4224 1.9500 2123.3 -0.0075506 1579.2 0.21725 715.00 0.0013986 -107.00 44.016 -0.58032 1.4224 1.9500 2123.3 -0.0075506 1579.2 0.21725
-128.62 16021. undefined -105.58 48.911 -0.57044 715.00 0.0013986 -105.58 48.911 -0.57044 1.4244 1.9506 2125.6 -0.0075475 1561.2 0.21763 715.00 0.0013986 -105.58 48.911 -0.57044 1.4244 1.9506 2125.6 -0.0075475 1561.2 0.21763
-127.62 16380. undefined -104.16 53.797 -0.56061 715.00 0.0013986 -104.16 53.797 -0.56061 1.4265 1.9513 2127.9 -0.0075443 1543.7 0.21801 715.00 0.0013986 -104.16 53.797 -0.56061 1.4265 1.9513 2127.9 -0.0075443 1543.7 0.21801
-126.62 16738. undefined -102.73 58.674 -0.55083 715.00 0.0013986 -102.73 58.674 -0.55083 1.4286 1.9519 2130.1 -0.0075411 1526.6 0.21839 715.00 0.0013986 -102.73 58.674 -0.55083 1.4286 1.9519 2130.1 -0.0075411 1526.6 0.21839
-125.62 17094. undefined -101.30 63.542 -0.54111 715.00 0.0013986 -101.30 63.542 -0.54111 1.4306 1.9526 2132.3 -0.0075379 1510.0 0.21878 715.00 0.0013986 -101.30 63.542 -0.54111 1.4306 1.9526 2132.3 -0.0075379 1510.0 0.21878
-124.62 17450. undefined -99.867 68.401 -0.53144 715.00 0.0013986 -99.867 68.401 -0.53144 1.4327 1.9533 2134.5 -0.0075346 1493.9 0.21916 715.00 0.0013986 -99.867 68.401 -0.53144 1.4327 1.9533 2134.5 -0.0075346 1493.9 0.21916
-123.62 17804. undefined -98.433 73.252 -0.52182 715.00 0.0013986 -98.433 73.252 -0.52182 1.4348 1.9540 2136.7 -0.0075313 1478.2 0.21955 715.00 0.0013986 -98.433 73.252 -0.52182 1.4348 1.9540 2136.7 -0.0075313 1478.2 0.21955
-122.62 18157. undefined -96.997 78.094 -0.51225 715.00 0.0013986 -96.997 78.094 -0.51225 1.4369 1.9547 2138.8 -0.0075279 1462.9 0.21993 715.00 0.0013986 -96.997 78.094 -0.51225 1.4369 1.9547 2138.8 -0.0075279 1462.9 0.21993
-121.62 18510. undefined -95.559 82.928 -0.50273 715.00 0.0013986 -95.559 82.928 -0.50273 1.4390 1.9554 2141.0 -0.0075245 1448.0 0.22032 715.00 0.0013986 -95.559 82.928 -0.50273 1.4390 1.9554 2141.0 -0.0075245 1448.0 0.22032
-120.62 18861. undefined -94.119 87.754 -0.49325 715.00 0.0013986 -94.119 87.754 -0.49325 1.4411 1.9562 2143.1 -0.0075210 1433.4 0.22070 715.00 0.0013986 -94.119 87.754 -0.49325 1.4411 1.9562 2143.1 -0.0075210 1433.4 0.22070
-119.62 19211. undefined -92.677 92.571 -0.48383 715.00 0.0013986 -92.677 92.571 -0.48383 1.4432 1.9569 2145.2 -0.0075175 1419.3 0.22109 715.00 0.0013986 -92.677 92.571 -0.48383 1.4432 1.9569 2145.2 -0.0075175 1419.3 0.22109
-118.62 19560. undefined -91.233 97.380 -0.47445 715.00 0.0013986 -91.233 97.380 -0.47445 1.4453 1.9577 2147.3 -0.0075140 1405.5 0.22147 715.00 0.0013986 -91.233 97.380 -0.47445 1.4453 1.9577 2147.3 -0.0075140 1405.5 0.22147
-117.62 19907. undefined -89.787 102.18 -0.46512 715.00 0.0013986 -89.787 102.18 -0.46512 1.4474 1.9585 2149.4 -0.0075104 1392.0 0.22186 715.00 0.0013986 -89.787 102.18 -0.46512 1.4474 1.9585 2149.4 -0.0075104 1392.0 0.22186
-116.62 20254. undefined -88.338 106.97 -0.45584 715.00 0.0013986 -88.338 106.97 -0.45584 1.4495 1.9593 2151.5 -0.0075067 1378.9 0.22225 715.00 0.0013986 -88.338 106.97 -0.45584 1.4495 1.9593 2151.5 -0.0075067 1378.9 0.22225
-115.62 20600. undefined -86.888 111.76 -0.44660 715.00 0.0013986 -86.888 111.76 -0.44660 1.4517 1.9601 2153.5 -0.0075030 1366.0 0.22263 715.00 0.0013986 -86.888 111.76 -0.44660 1.4517 1.9601 2153.5 -0.0075030 1366.0 0.22263
-114.62 20945. undefined -85.435 116.54 -0.43741 715.00 0.0013986 -85.435 116.54 -0.43741 1.4538 1.9610 2155.5 -0.0074993 1353.5 0.22302 715.00 0.0013986 -85.435 116.54 -0.43741 1.4538 1.9610 2155.5 -0.0074993 1353.5 0.22302
-113.62 21289. undefined -83.980 121.31 -0.42826 715.00 0.0013986 -83.980 121.31 -0.42826 1.4559 1.9618 2157.5 -0.0074954 1341.3 0.22341 715.00 0.0013986 -83.980 121.31 -0.42826 1.4559 1.9618 2157.5 -0.0074954 1341.3 0.22341
-112.62 21631. undefined -82.523 126.07 -0.41916 715.00 0.0013986 -82.523 126.07 -0.41916 1.4581 1.9627 2159.5 -0.0074916 1329.4 0.22379 715.00 0.0013986 -82.523 126.07 -0.41916 1.4581 1.9627 2159.5 -0.0074916 1329.4 0.22379
-111.62 21973. undefined -81.064 130.82 -0.41009 715.00 0.0013986 -81.064 130.82 -0.41009 1.4603 1.9636 2161.5 -0.0074877 1317.7 0.22418 715.00 0.0013986 -81.064 130.82 -0.41009 1.4603 1.9636 2161.5 -0.0074877 1317.7 0.22418
-110.62 22314. undefined -79.602 135.57 -0.40107 715.00 0.0013986 -79.602 135.57 -0.40107 1.4625 1.9645 2163.5 -0.0074837 1306.4 0.22457 715.00 0.0013986 -79.602 135.57 -0.40107 1.4625 1.9645 2163.5 -0.0074837 1306.4 0.22457
-109.62 22653. undefined -78.139 140.31 -0.39210 715.00 0.0013986 -78.139 140.31 -0.39210 1.4646 1.9654 2165.4 -0.0074796 1295.2 0.22496 715.00 0.0013986 -78.139 140.31 -0.39210 1.4646 1.9654 2165.4 -0.0074796 1295.2 0.22496
-108.62 22992. undefined -76.673 145.04 -0.38316 715.00 0.0013986 -76.673 145.04 -0.38316 1.4668 1.9663 2167.4 -0.0074756 1284.4 0.22535 715.00 0.0013986 -76.673 145.04 -0.38316 1.4668 1.9663 2167.4 -0.0074756 1284.4 0.22535
-107.62 23330. undefined -75.205 149.77 -0.37427 715.00 0.0013986 -75.205 149.77 -0.37427 1.4691 1.9673 2169.3 -0.0074714 1273.7 0.22574 715.00 0.0013986 -75.205 149.77 -0.37427 1.4691 1.9673 2169.3 -0.0074714 1273.7 0.22574
-106.62 23667. undefined -73.735 154.48 -0.36541 715.00 0.0013986 -73.735 154.48 -0.36541 1.4713 1.9683 2171.2 -0.0074672 1263.3 0.22613 715.00 0.0013986 -73.735 154.48 -0.36541 1.4713 1.9683 2171.2 -0.0074672 1263.3 0.22613
-105.62 24003. undefined -72.263 159.19 -0.35659 715.00 0.0013986 -72.263 159.19 -0.35659 1.4735 1.9693 2173.1 -0.0074629 1253.1 0.22652 715.00 0.0013986 -72.263 159.19 -0.35659 1.4735 1.9693 2173.1 -0.0074629 1253.1 0.22652
-104.62 24337. undefined -70.788 163.90 -0.34782 715.00 0.0013986 -70.788 163.90 -0.34782 1.4757 1.9703 2175.0 -0.0074586 1243.2 0.22691 715.00 0.0013986 -70.788 163.90 -0.34782 1.4757 1.9703 2175.0 -0.0074586 1243.2 0.22691
-103.62 24671. undefined -69.311 168.60 -0.33908 715.00 0.0013986 -69.311 168.60 -0.33908 1.4780 1.9713 2176.8 -0.0074542 1233.5 0.22730 715.00 0.0013986 -69.311 168.60 -0.33908 1.4780 1.9713 2176.8 -0.0074542 1233.5 0.22730
