Temperature (C) Pressure (psia) Quality (l+v) Internal Energy (l+v, kJ/kg) Enthalpy (l+v, kJ/kg) Entropy (l+v, J/g*K) Density (l, kg/m3) Volume (l, m3/kg) Internal Energy (l, kJ/kg) Enthalpy (l, kJ/kg) Entropy (l, J/g*K) Cv (l, J/g*K) Cp (l, J/g*K) Sound Spd. (l, m/s) Joule-Thomson (l, F/psia) Viscosity (l, uPa*s) Therm. Cond. (l, W/m*K) Density (v, kg/m3) Volume (v, m3/kg) Internal Energy (v, kJ/kg) Enthalpy (v, kJ/kg) Entropy (v, J/g*K) Cv (v, J/g*K) Cp (v, J/g*K) Sound Spd. (v, m/s) Joule-Thomson (v, F/psia) Viscosity (v, uPa*s) Therm. Cond. (v, W/m*K)
-187.62 2.4953e-08 1.6309e-13 -196.64 -196.64 -1.3959 733.13 0.0013640 -196.64 -196.64 -1.3959 1.3553 1.9158 2136.4 -0.0077592 10960. 0.20792 1.0669e-08 9.3732e+07 350.13 366.26 5.1858 0.69067 0.87923 143.28 6.1051 2.3259 0.0017061
-186.62 3.7339e-08 2.1054e-13 -194.73 -194.73 -1.3736 732.08 0.0013660 -194.73 -194.73 -1.3736 1.3539 1.9166 2129.6 -0.0077546 10073. 0.20765 1.5780e-08 6.3371e+07 350.82 367.14 5.1200 0.69462 0.88317 144.03 5.9178 2.3534 0.0017533
-185.62 5.5322e-08 2.6335e-13 -192.81 -192.81 -1.3516 731.04 0.0013679 -192.81 -192.81 -1.3516 1.3525 1.9174 2122.9 -0.0077498 9276.1 0.20737 2.3112e-08 4.3267e+07 351.52 368.02 5.0561 0.69857 0.88713 144.77 5.7383 2.3808 0.0018007
-184.62 8.1182e-08 3.1669e-13 -190.89 -190.89 -1.3298 730.00 0.0013699 -190.89 -190.89 -1.3298 1.3513 1.9182 2116.1 -0.0077448 8557.8 0.20708 3.3533e-08 2.9821e+07 352.22 368.91 4.9939 0.70253 0.89108 145.51 5.5662 2.4083 0.0018485
-183.62 1.1803e-07 3.6113e-13 -188.97 -188.97 -1.3083 728.96 0.0013718 -188.97 -188.97 -1.3083 1.3501 1.9191 2109.3 -0.0077395 7909.8 0.20678 4.8211e-08 2.0742e+07 352.92 369.81 4.9333 0.70648 0.89504 146.24 5.4011 2.4357 0.0018965
-182.62 1.7009e-07 3.8023e-13 -187.05 -187.05 -1.2869 727.92 0.0013738 -187.05 -187.05 -1.2869 1.3490 1.9201 2102.5 -0.0077340 7324.3 0.20647 6.8704e-08 1.4555e+07 353.63 370.70 4.8744 0.71043 0.89899 146.97 5.2426 2.4632 0.0019448
-181.62 2.4299e-07 3.4705e-13 -185.13 -185.13 -1.2658 726.88 0.0013757 -185.13 -185.13 -1.2658 1.3480 1.9210 2095.7 -0.0077283 6794.5 0.20616 9.7079e-08 1.0301e+07 354.35 371.60 4.8170 0.71438 0.90294 147.69 5.0904 2.4906 0.0019934
-180.62 3.4425e-07 2.1938e-13 -183.21 -183.21 -1.2450 725.85 0.0013777 -183.21 -183.21 -1.2450 1.3470 1.9220 2088.9 -0.0077225 6314.4 0.20584 1.3605e-07 7.3504e+06 355.06 372.51 4.7612 0.71833 0.90688 148.41 4.9442 2.5181 0.0020423
-179.62 81.723 undefined -181.39 -180.62 -1.2254 725.00 0.0013793 -181.39 -180.62 -1.2254 1.3466 1.9229 2083.8 -0.0077171 5912.8 0.20564 725.00 0.0013793 -181.39 -180.62 -1.2254 1.3466 1.9229 2083.8 -0.0077171 5912.8 0.20564
-178.62 535.81 undefined -180.05 -174.95 -1.2111 725.00 0.0013793 -180.05 -174.95 -1.2111 1.3485 1.9230 2086.8 -0.0077146 5691.9 0.20605 725.00 0.0013793 -180.05 -174.95 -1.2111 1.3485 1.9230 2086.8 -0.0077146 5691.9 0.20605
-177.62 987.78 undefined -178.70 -169.30 -1.1969 725.00 0.0013793 -178.70 -169.30 -1.1969 1.3504 1.9232 2089.8 -0.0077119 5484.5 0.20646 725.00 0.0013793 -178.70 -169.30 -1.1969 1.3504 1.9232 2089.8 -0.0077119 5484.5 0.20646
-176.62 1437.7 undefined -177.34 -163.67 -1.1828 725.00 0.0013793 -177.34 -163.67 -1.1828 1.3522 1.9234 2092.9 -0.0077091 5289.6 0.20687 725.00 0.0013793 -177.34 -163.67 -1.1828 1.3522 1.9234 2092.9 -0.0077091 5289.6 0.20687
-175.62 1885.5 undefined -175.99 -158.06 -1.1689 725.00 0.0013793 -175.99 -158.06 -1.1689 1.3541 1.9236 2095.9 -0.0077063 5106.3 0.20728 725.00 0.0013793 -175.99 -158.06 -1.1689 1.3541 1.9236 2095.9 -0.0077063 5106.3 0.20728
-174.62 2331.3 undefined -174.64 -152.46 -1.1550 725.00 0.0013793 -174.64 -152.46 -1.1550 1.3560 1.9239 2098.9 -0.0077033 4933.6 0.20770 725.00 0.0013793 -174.64 -152.46 -1.1550 1.3560 1.9239 2098.9 -0.0077033 4933.6 0.20770
-173.62 2775.2 undefined -173.28 -146.89 -1.1413 725.00 0.0013793 -173.28 -146.89 -1.1413 1.3579 1.9242 2102.0 -0.0077003 4770.9 0.20811 725.00 0.0013793 -173.28 -146.89 -1.1413 1.3579 1.9242 2102.0 -0.0077003 4770.9 0.20811
-172.62 3217.1 undefined -171.92 -141.33 -1.1277 725.00 0.0013793 -171.92 -141.33 -1.1277 1.3598 1.9245 2105.0 -0.0076972 4617.3 0.20852 725.00 0.0013793 -171.92 -141.33 -1.1277 1.3598 1.9245 2105.0 -0.0076972 4617.3 0.20852
-171.62 3657.2 undefined -170.56 -135.78 -1.1143 725.00 0.0013793 -170.56 -135.78 -1.1143 1.3618 1.9248 2108.0 -0.0076940 4472.4 0.20893 725.00 0.0013793 -170.56 -135.78 -1.1143 1.3618 1.9248 2108.0 -0.0076940 4472.4 0.20893
-170.62 4095.3 undefined -169.20 -130.25 -1.1009 725.00 0.0013793 -169.20 -130.25 -1.1009 1.3637 1.9252 2111.0 -0.0076908 4335.3 0.20934 725.00 0.0013793 -169.20 -130.25 -1.1009 1.3637 1.9252 2111.0 -0.0076908 4335.3 0.20934
-169.62 4531.6 undefined -167.83 -124.74 -1.0877 725.00 0.0013793 -167.83 -124.74 -1.0877 1.3656 1.9256 2114.0 -0.0076875 4205.7 0.20976 725.00 0.0013793 -167.83 -124.74 -1.0877 1.3656 1.9256 2114.0 -0.0076875 4205.7 0.20976
-168.62 4966.1 undefined -166.47 -119.24 -1.0745 725.00 0.0013793 -166.47 -119.24 -1.0745 1.3676 1.9260 2117.0 -0.0076842 4082.9 0.21017 725.00 0.0013793 -166.47 -119.24 -1.0745 1.3676 1.9260 2117.0 -0.0076842 4082.9 0.21017
-167.62 5398.7 undefined -165.10 -113.76 -1.0615 725.00 0.0013793 -165.10 -113.76 -1.0615 1.3695 1.9264 2119.9 -0.0076809 3966.6 0.21058 725.00 0.0013793 -165.10 -113.76 -1.0615 1.3695 1.9264 2119.9 -0.0076809 3966.6 0.21058
-166.62 5829.6 undefined -163.73 -108.29 -1.0486 725.00 0.0013793 -163.73 -108.29 -1.0486 1.3715 1.9268 2122.9 -0.0076775 3856.3 0.21100 725.00 0.0013793 -163.73 -108.29 -1.0486 1.3715 1.9268 2122.9 -0.0076775 3856.3 0.21100
-165.62 6258.8 undefined -162.35 -102.83 -1.0357 725.00 0.0013793 -162.35 -102.83 -1.0357 1.3734 1.9273 2125.8 -0.0076741 3751.6 0.21141 725.00 0.0013793 -162.35 -102.83 -1.0357 1.3734 1.9273 2125.8 -0.0076741 3751.6 0.21141
-164.62 6686.2 undefined -160.98 -97.394 -1.0230 725.00 0.0013793 -160.98 -97.394 -1.0230 1.3754 1.9277 2128.7 -0.0076706 3652.1 0.21182 725.00 0.0013793 -160.98 -97.394 -1.0230 1.3754 1.9277 2128.7 -0.0076706 3652.1 0.21182
-163.62 7111.9 undefined -159.60 -91.969 -1.0104 725.00 0.0013793 -159.60 -91.969 -1.0104 1.3773 1.9282 2131.6 -0.0076672 3557.5 0.21224 725.00 0.0013793 -159.60 -91.969 -1.0104 1.3773 1.9282 2131.6 -0.0076672 3557.5 0.21224
-162.62 7535.9 undefined -158.22 -86.559 -0.99787 725.00 0.0013793 -158.22 -86.559 -0.99787 1.3793 1.9287 2134.5 -0.0076637 3467.4 0.21265 725.00 0.0013793 -158.22 -86.559 -0.99787 1.3793 1.9287 2134.5 -0.0076637 3467.4 0.21265
-161.62 7958.2 undefined -156.84 -81.162 -0.98544 725.00 0.0013793 -156.84 -81.162 -0.98544 1.3813 1.9292 2137.3 -0.0076602 3381.7 0.21307 725.00 0.0013793 -156.84 -81.162 -0.98544 1.3813 1.9292 2137.3 -0.0076602 3381.7 0.21307
-160.62 8378.9 undefined -155.46 -75.779 -0.97310 725.00 0.0013793 -155.46 -75.779 -0.97310 1.3833 1.9297 2140.2 -0.0076567 3300.0 0.21349 725.00 0.0013793 -155.46 -75.779 -0.97310 1.3833 1.9297 2140.2 -0.0076567 3300.0 0.21349
-159.62 8798.0 undefined -154.08 -70.409 -0.96086 725.00 0.0013793 -154.08 -70.409 -0.96086 1.3852 1.9302 2143.0 -0.0076532 3222.1 0.21390 725.00 0.0013793 -154.08 -70.409 -0.96086 1.3852 1.9302 2143.0 -0.0076532 3222.1 0.21390
-158.62 9215.5 undefined -152.69 -65.053 -0.94870 725.00 0.0013793 -152.69 -65.053 -0.94870 1.3872 1.9308 2145.8 -0.0076497 3147.8 0.21432 725.00 0.0013793 -152.69 -65.053 -0.94870 1.3872 1.9308 2145.8 -0.0076497 3147.8 0.21432
-157.62 9631.3 undefined -151.30 -59.710 -0.93663 725.00 0.0013793 -151.30 -59.710 -0.93663 1.3892 1.9313 2148.5 -0.0076462 3076.8 0.21473 725.00 0.0013793 -151.30 -59.710 -0.93663 1.3892 1.9313 2148.5 -0.0076462 3076.8 0.21473
-156.62 10046. undefined -149.91 -54.380 -0.92465 725.00 0.0013793 -149.91 -54.380 -0.92465 1.3912 1.9318 2151.3 -0.0076427 3008.9 0.21515 725.00 0.0013793 -149.91 -54.380 -0.92465 1.3912 1.9318 2151.3 -0.0076427 3008.9 0.21515
-155.62 10458. undefined -148.52 -49.063 -0.91275 725.00 0.0013793 -148.52 -49.063 -0.91275 1.3932 1.9324 2154.0 -0.0076391 2944.0 0.21557 725.00 0.0013793 -148.52 -49.063 -0.91275 1.3932 1.9324 2154.0 -0.0076391 2944.0 0.21557
-154.62 10869. undefined -147.13 -43.758 -0.90094 725.00 0.0013793 -147.13 -43.758 -0.90094 1.3951 1.9330 2156.7 -0.0076356 2881.9 0.21598 725.00 0.0013793 -147.13 -43.758 -0.90094 1.3951 1.9330 2156.7 -0.0076356 2881.9 0.21598
-153.62 11279. undefined -145.73 -38.466 -0.88921 725.00 0.0013793 -145.73 -38.466 -0.88921 1.3971 1.9335 2159.4 -0.0076320 2822.4 0.21640 725.00 0.0013793 -145.73 -38.466 -0.88921 1.3971 1.9335 2159.4 -0.0076320 2822.4 0.21640
-152.62 11687. undefined -144.33 -33.187 -0.87756 725.00 0.0013793 -144.33 -33.187 -0.87756 1.3991 1.9341 2162.0 -0.0076285 2765.3 0.21682 725.00 0.0013793 -144.33 -33.187 -0.87756 1.3991 1.9341 2162.0 -0.0076285 2765.3 0.21682
-151.62 12094. undefined -142.93 -27.920 -0.86599 725.00 0.0013793 -142.93 -27.920 -0.86599 1.4011 1.9347 2164.7 -0.0076249 2710.7 0.21724 725.00 0.0013793 -142.93 -27.920 -0.86599 1.4011 1.9347 2164.7 -0.0076249 2710.7 0.21724
-150.62 12499. undefined -141.53 -22.665 -0.85450 725.00 0.0013793 -141.53 -22.665 -0.85450 1.4031 1.9353 2167.3 -0.0076214 2658.2 0.21766 725.00 0.0013793 -141.53 -22.665 -0.85450 1.4031 1.9353 2167.3 -0.0076214 2658.2 0.21766
-149.62 12903. undefined -140.13 -17.422 -0.84309 725.00 0.0013793 -140.13 -17.422 -0.84309 1.4051 1.9358 2169.9 -0.0076178 2607.9 0.21807 725.00 0.0013793 -140.13 -17.422 -0.84309 1.4051 1.9358 2169.9 -0.0076178 2607.9 0.21807
-148.62 13305. undefined -138.72 -12.191 -0.83175 725.00 0.0013793 -138.72 -12.191 -0.83175 1.4071 1.9364 2172.4 -0.0076143 2559.5 0.21849 725.00 0.0013793 -138.72 -12.191 -0.83175 1.4071 1.9364 2172.4 -0.0076143 2559.5 0.21849
-147.62 13706. undefined -137.31 -6.9712 -0.82049 725.00 0.0013793 -137.31 -6.9712 -0.82049 1.4091 1.9371 2175.0 -0.0076107 2513.0 0.21891 725.00 0.0013793 -137.31 -6.9712 -0.82049 1.4091 1.9371 2175.0 -0.0076107 2513.0 0.21891
-146.62 14105. undefined -135.90 -1.7634 -0.80930 725.00 0.0013793 -135.90 -1.7634 -0.80930 1.4110 1.9377 2177.5 -0.0076071 2468.2 0.21933 725.00 0.0013793 -135.90 -1.7634 -0.80930 1.4110 1.9377 2177.5 -0.0076071 2468.2 0.21933
-145.62 14503. undefined -134.49 3.4329 -0.79818 725.00 0.0013793 -134.49 3.4329 -0.79818 1.4130 1.9383 2180.0 -0.0076036 2425.2 0.21975 725.00 0.0013793 -134.49 3.4329 -0.79818 1.4130 1.9383 2180.0 -0.0076036 2425.2 0.21975
-144.62 14899. undefined -133.08 8.6178 -0.78714 725.00 0.0013793 -133.08 8.6178 -0.78714 1.4150 1.9389 2182.5 -0.0076000 2383.8 0.22017 725.00 0.0013793 -133.08 8.6178 -0.78714 1.4150 1.9389 2182.5 -0.0076000 2383.8 0.22017
-143.62 15295. undefined -131.66 13.792 -0.77616 725.00 0.0013793 -131.66 13.792 -0.77616 1.4170 1.9395 2185.0 -0.0075964 2343.8 0.22059 725.00 0.0013793 -131.66 13.792 -0.77616 1.4170 1.9395 2185.0 -0.0075964 2343.8 0.22059
-142.62 15688. undefined -130.24 18.954 -0.76526 725.00 0.0013793 -130.24 18.954 -0.76526 1.4190 1.9402 2187.4 -0.0075928 2305.3 0.22101 725.00 0.0013793 -130.24 18.954 -0.76526 1.4190 1.9402 2187.4 -0.0075928 2305.3 0.22101
-141.62 16081. undefined -128.82 24.106 -0.75442 725.00 0.0013793 -128.82 24.106 -0.75442 1.4210 1.9408 2189.8 -0.0075892 2268.2 0.22143 725.00 0.0013793 -128.82 24.106 -0.75442 1.4210 1.9408 2189.8 -0.0075892 2268.2 0.22143
-140.62 16472. undefined -127.40 29.246 -0.74365 725.00 0.0013793 -127.40 29.246 -0.74365 1.4230 1.9415 2192.2 -0.0075856 2232.4 0.22186 725.00 0.0013793 -127.40 29.246 -0.74365 1.4230 1.9415 2192.2 -0.0075856 2232.4 0.22186
-139.62 16861. undefined -125.98 34.376 -0.73295 725.00 0.0013793 -125.98 34.376 -0.73295 1.4250 1.9421 2194.6 -0.0075819 2197.8 0.22228 725.00 0.0013793 -125.98 34.376 -0.73295 1.4250 1.9421 2194.6 -0.0075819 2197.8 0.22228
-138.62 17250. undefined -124.55 39.495 -0.72231 725.00 0.0013793 -124.55 39.495 -0.72231 1.4270 1.9428 2196.9 -0.0075783 2164.5 0.22270 725.00 0.0013793 -124.55 39.495 -0.72231 1.4270 1.9428 2196.9 -0.0075783 2164.5 0.22270
-137.62 17637. undefined -123.12 44.604 -0.71173 725.00 0.0013793 -123.12 44.604 -0.71173 1.4290 1.9435 2199.3 -0.0075746 2132.2 0.22312 725.00 0.0013793 -123.12 44.604 -0.71173 1.4290 1.9435 2199.3 -0.0075746 2132.2 0.22312
-136.62 18023. undefined -121.69 49.702 -0.70122 725.00 0.0013793 -121.69 49.702 -0.70122 1.4310 1.9442 2201.6 -0.0075710 2101.0 0.22354 725.00 0.0013793 -121.69 49.702 -0.70122 1.4310 1.9442 2201.6 -0.0075710 2101.0 0.22354
-135.62 18407. undefined -120.26 54.790 -0.69077 725.00 0.0013793 -120.26 54.790 -0.69077 1.4330 1.9449 2203.9 -0.0075673 2070.8 0.22397 725.00 0.0013793 -120.26 54.790 -0.69077 1.4330 1.9449 2203.9 -0.0075673 2070.8 0.22397
-134.62 18790. undefined -118.83 59.867 -0.68038 725.00 0.0013793 -118.83 59.867 -0.68038 1.4350 1.9456 2206.2 -0.0075636 2041.6 0.22439 725.00 0.0013793 -118.83 59.867 -0.68038 1.4350 1.9456 2206.2 -0.0075636 2041.6 0.22439
-133.62 19172. undefined -117.39 64.935 -0.67005 725.00 0.0013793 -117.39 64.935 -0.67005 1.4370 1.9463 2208.4 -0.0075599 2013.4 0.22481 725.00 0.0013793 -117.39 64.935 -0.67005 1.4370 1.9463 2208.4 -0.0075599 2013.4 0.22481
-132.62 19553. undefined -115.95 69.992 -0.65978 725.00 0.0013793 -115.95 69.992 -0.65978 1.4390 1.9470 2210.7 -0.0075561 1986.0 0.22524 725.00 0.0013793 -115.95 69.992 -0.65978 1.4390 1.9470 2210.7 -0.0075561 1986.0 0.22524
-131.62 19932. undefined -114.51 75.040 -0.64957 725.00 0.0013793 -114.51 75.040 -0.64957 1.4410 1.9477 2212.9 -0.0075524 1959.5 0.22566 725.00 0.0013793 -114.51 75.040 -0.64957 1.4410 1.9477 2212.9 -0.0075524 1959.5 0.22566
-130.62 20310. undefined -113.07 80.077 -0.63941 725.00 0.0013793 -113.07 80.077 -0.63941 1.4431 1.9484 2215.1 -0.0075486 1933.8 0.22608 725.00 0.0013793 -113.07 80.077 -0.63941 1.4431 1.9484 2215.1 -0.0075486 1933.8 0.22608
-129.62 20687. undefined -111.63 85.105 -0.62932 725.00 0.0013793 -111.63 85.105 -0.62932 1.4451 1.9492 2217.3 -0.0075448 1908.9 0.22651 725.00 0.0013793 -111.63 85.105 -0.62932 1.4451 1.9492 2217.3 -0.0075448 1908.9 0.22651
-128.62 21062. undefined -110.18 90.123 -0.61928 725.00 0.0013793 -110.18 90.123 -0.61928 1.4471 1.9499 2219.5 -0.0075410 1884.7 0.22693 725.00 0.0013793 -110.18 90.123 -0.61928 1.4471 1.9499 2219.5 -0.0075410 1884.7 0.22693
-127.62 21437. undefined -108.73 95.132 -0.60929 725.00 0.0013793 -108.73 95.132 -0.60929 1.4491 1.9507 2221.6 -0.0075371 1861.2 0.22736 725.00 0.0013793 -108.73 95.132 -0.60929 1.4491 1.9507 2221.6 -0.0075371 1861.2 0.22736
-126.62 21810. undefined -107.28 100.13 -0.59936 725.00 0.0013793 -107.28 100.13 -0.59936 1.4512 1.9515 2223.7 -0.0075332 1838.5 0.22778 725.00 0.0013793 -107.28 100.13 -0.59936 1.4512 1.9515 2223.7 -0.0075332 1838.5 0.22778
-125.62 22182. undefined -105.83 105.12 -0.58948 725.00 0.0013793 -105.83 105.12 -0.58948 1.4532 1.9523 2225.8 -0.0075293 1816.3 0.22821 725.00 0.0013793 -105.83 105.12 -0.58948 1.4532 1.9523 2225.8 -0.0075293 1816.3 0.22821
-124.62 22553. undefined -104.38 110.10 -0.57966 725.00 0.0013793 -104.38 110.10 -0.57966 1.4553 1.9531 2227.9 -0.0075254 1794.9 0.22864 725.00 0.0013793 -104.38 110.10 -0.57966 1.4553 1.9531 2227.9 -0.0075254 1794.9 0.22864
-123.62 22922. undefined -102.92 115.07 -0.56989 725.00 0.0013793 -102.92 115.07 -0.56989 1.4573 1.9539 2230.0 -0.0075214 1774.0 0.22906 725.00 0.0013793 -102.92 115.07 -0.56989 1.4573 1.9539 2230.0 -0.0075214 1774.0 0.22906
-122.62 23291. undefined -101.46 120.04 -0.56016 725.00 0.0013793 -101.46 120.04 -0.56016 1.4594 1.9547 2232.1 -0.0075174 1753.7 0.22949 725.00 0.0013793 -101.46 120.04 -0.56016 1.4594 1.9547 2232.1 -0.0075174 1753.7 0.22949
-121.62 23658. undefined -100.00 124.99 -0.55049 725.00 0.0013793 -100.00 124.99 -0.55049 1.4614 1.9556 2234.1 -0.0075133 1733.9 0.22992 725.00 0.0013793 -100.00 124.99 -0.55049 1.4614 1.9556 2234.1 -0.0075133 1733.9 0.22992
-120.62 24024. undefined -98.538 129.93 -0.54087 725.00 0.0013793 -98.538 129.93 -0.54087 1.4635 1.9564 2236.2 -0.0075093 1714.7 0.23034 725.00 0.0013793 -98.538 129.93 -0.54087 1.4635 1.9564 2236.2 -0.0075093 1714.7 0.23034
-119.62 24389. undefined -97.073 134.87 -0.53130 725.00 0.0013793 -97.073 134.87 -0.53130 1.4656 1.9573 2238.2 -0.0075051 1696.0 0.23077 725.00 0.0013793 -97.073 134.87 -0.53130 1.4656 1.9573 2238.2 -0.0075051 1696.0 0.23077
-118.62 24753. undefined -95.607 139.80 -0.52178 725.00 0.0013793 -95.607 139.80 -0.52178 1.4677 1.9582 2240.2 -0.0075010 1677.8 0.23120 725.00 0.0013793 -95.607 139.80 -0.52178 1.4677 1.9582 2240.2 -0.0075010 1677.8 0.23120
-117.62 25116. undefined -94.138 144.72 -0.51231 725.00 0.0013793 -94.138 144.72 -0.51231 1.4698 1.9590 2242.1 -0.0074968 1660.1 0.23163 725.00 0.0013793 -94.138 144.72 -0.51231 1.4698 1.9590 2242.1 -0.0074968 1660.1 0.23163
-116.62 25478. undefined -92.667 149.63 -0.50288 725.00 0.0013793 -92.667 149.63 -0.50288 1.4719 1.9599 2244.1 -0.0074926 1642.8 0.23205 725.00 0.0013793 -92.667 149.63 -0.50288 1.4719 1.9599 2244.1 -0.0074926 1642.8 0.23205
-115.62 25838. undefined -91.194 154.53 -0.49350 725.00 0.0013793 -91.194 154.53 -0.49350 1.4740 1.9609 2246.0 -0.0074883 1626.0 0.23248 725.00 0.0013793 -91.194 154.53 -0.49350 1.4740 1.9609 2246.0 -0.0074883 1626.0 0.23248
-114.62 26198. undefined -89.719 159.42 -0.48417 725.00 0.0013793 -89.719 159.42 -0.48417 1.4761 1.9618 2248.0 -0.0074840 1609.6 0.23291 725.00 0.0013793 -89.719 159.42 -0.48417 1.4761 1.9618 2248.0 -0.0074840 1609.6 0.23291
-113.62 26556. undefined -88.242 164.31 -0.47488 725.00 0.0013793 -88.242 164.31 -0.47488 1.4782 1.9627 2249.9 -0.0074796 1593.6 0.23334 725.00 0.0013793 -88.242 164.31 -0.47488 1.4782 1.9627 2249.9 -0.0074796 1593.6 0.23334
-112.62 26913. undefined -86.763 169.18 -0.46563 725.00 0.0013793 -86.763 169.18 -0.46563 1.4803 1.9637 2251.8 -0.0074752 1578.1 0.23377 725.00 0.0013793 -86.763 169.18 -0.46563 1.4803 1.9637 2251.8 -0.0074752 1578.1 0.23377
-111.62 27270. undefined -85.281 174.05 -0.45643 725.00 0.0013793 -85.281 174.05 -0.45643 1.4825 1.9647 2253.7 -0.0074707 1562.9 0.23420 725.00 0.0013793 -85.281 174.05 -0.45643 1.4825 1.9647 2253.7 -0.0074707 1562.9 0.23420
-110.62 27625. undefined -83.798 178.91 -0.44728 725.00 0.0013793 -83.798 178.91 -0.44728 1.4846 1.9657 2255.5 -0.0074662 1548.0 0.23463 725.00 0.0013793 -83.798 178.91 -0.44728 1.4846 1.9657 2255.5 -0.0074662 1548.0 0.23463
-109.62 27979. undefined -82.312 183.77 -0.43816 725.00 0.0013793 -82.312 183.77 -0.43816 1.4868 1.9667 2257.4 -0.0074617 1533.5 0.23506 725.00 0.0013793 -82.312 183.77 -0.43816 1.4868 1.9667 2257.4 -0.0074617 1533.5 0.23506
-108.62 28332. undefined -80.824 188.61 -0.42909 725.00 0.0013793 -80.824 188.61 -0.42909 1.4889 1.9677 2259.2 -0.0074571 1519.4 0.23549 725.00 0.0013793 -80.824 188.61 -0.42909 1.4889 1.9677 2259.2 -0.0074571 1519.4 0.23549
-107.62 28684. undefined -79.334 193.45 -0.42006 725.00 0.0013793 -79.334 193.45 -0.42006 1.4911 1.9688 2261.1 -0.0074524 1505.6 0.23592 725.00 0.0013793 -79.334 193.45 -0.42006 1.4911 1.9688 2261.1 -0.0074524 1505.6 0.23592
-106.62 29035. undefined -77.842 198.28 -0.41108 725.00 0.0013793 -77.842 198.28 -0.41108 1.4933 1.9698 2262.9 -0.0074477 1492.1 0.23635 725.00 0.0013793 -77.842 198.28 -0.41108 1.4933 1.9698 2262.9 -0.0074477 1492.1 0.23635
-105.62 29385. undefined -76.348 203.10 -0.40213 725.00 0.0013793 -76.348 203.10 -0.40213 1.4955 1.9709 2264.7 -0.0074430 1478.9 0.23679 725.00 0.0013793 -76.348 203.10 -0.40213 1.4955 1.9709 2264.7 -0.0074430 1478.9 0.23679
-104.62 29734. undefined -74.851 207.92 -0.39322 725.00 0.0013793 -74.851 207.92 -0.39322 1.4977 1.9720 2266.5 -0.0074382 1466.1 0.23722 725.00 0.0013793 -74.851 207.92 -0.39322 1.4977 1.9720 2266.5 -0.0074382 1466.1 0.23722
-103.62 30082. undefined -73.352 212.72 -0.38436 725.00 0.0013793 -73.352 212.72 -0.38436 1.4999 1.9731 2268.2 -0.0074333 1453.5 0.23765 725.00 0.0013793 -73.352 212.72 -0.38436 1.4999 1.9731 2268.2 -0.0074333 1453.5 0.23765
