Temperature (C) Pressure (psia) Quality (l+v) Internal Energy (l+v, kJ/kg) Enthalpy (l+v, kJ/kg) Entropy (l+v, J/g*K) Density (l, kg/m3) Volume (l, m3/kg) Internal Energy (l, kJ/kg) Enthalpy (l, kJ/kg) Entropy (l, J/g*K) Cv (l, J/g*K) Cp (l, J/g*K) Sound Spd. (l, m/s) Joule-Thomson (l, F/psia) Viscosity (l, uPa*s) Therm. Cond. (l, W/m*K) Density (v, kg/m3) Volume (v, m3/kg) Internal Energy (v, kJ/kg) Enthalpy (v, kJ/kg) Entropy (v, J/g*K) Cv (v, J/g*K) Cp (v, J/g*K) Sound Spd. (v, m/s) Joule-Thomson (v, F/psia) Viscosity (v, uPa*s) Therm. Cond. (v, W/m*K)
-187.62 2.4953e-08 1.1369e-12 -196.64 -196.64 -1.3959 733.13 0.0013640 -196.64 -196.64 -1.3959 1.3553 1.9158 2136.4 -0.0077592 10960. 0.20792 1.0669e-08 9.3732e+07 350.13 366.26 5.1858 0.69067 0.87923 143.28 6.1051 2.3259 0.0017061
-186.62 3.7339e-08 1.6509e-12 -194.73 -194.73 -1.3736 732.08 0.0013660 -194.73 -194.73 -1.3736 1.3539 1.9166 2129.6 -0.0077546 10073. 0.20765 1.5780e-08 6.3371e+07 350.82 367.14 5.1200 0.69462 0.88317 144.03 5.9178 2.3534 0.0017533
-185.62 5.5322e-08 2.3730e-12 -192.81 -192.81 -1.3516 731.04 0.0013679 -192.81 -192.81 -1.3516 1.3525 1.9174 2122.9 -0.0077498 9276.1 0.20737 2.3112e-08 4.3267e+07 351.52 368.02 5.0561 0.69857 0.88713 144.77 5.7383 2.3808 0.0018007
-184.62 8.1182e-08 3.3775e-12 -190.89 -190.89 -1.3298 730.00 0.0013699 -190.89 -190.89 -1.3298 1.3513 1.9182 2116.1 -0.0077448 8557.8 0.20708 3.3533e-08 2.9821e+07 352.22 368.91 4.9939 0.70253 0.89108 145.51 5.5662 2.4083 0.0018485
-183.62 1.1803e-07 4.7617e-12 -188.97 -188.97 -1.3083 728.96 0.0013718 -188.97 -188.97 -1.3083 1.3501 1.9191 2109.3 -0.0077395 7909.8 0.20678 4.8211e-08 2.0742e+07 352.92 369.81 4.9333 0.70648 0.89504 146.24 5.4011 2.4357 0.0018965
-182.62 1.7009e-07 6.6514e-12 -187.05 -187.05 -1.2869 727.92 0.0013738 -187.05 -187.05 -1.2869 1.3490 1.9201 2102.5 -0.0077340 7324.3 0.20647 6.8704e-08 1.4555e+07 353.63 370.70 4.8744 0.71043 0.89899 146.97 5.2426 2.4632 0.0019448
-181.62 2.4299e-07 9.2082e-12 -185.13 -185.13 -1.2658 726.88 0.0013757 -185.13 -185.13 -1.2658 1.3480 1.9210 2095.7 -0.0077283 6794.5 0.20616 9.7079e-08 1.0301e+07 354.35 371.60 4.8170 0.71438 0.90294 147.69 5.0904 2.4906 0.0019934
-180.62 3.4425e-07 1.2638e-11 -183.21 -183.21 -1.2450 725.85 0.0013777 -183.21 -183.21 -1.2450 1.3470 1.9220 2088.9 -0.0077225 6314.4 0.20584 1.3605e-07 7.3504e+06 355.06 372.51 4.7612 0.71833 0.90688 148.41 4.9442 2.5181 0.0020423
-179.62 4.8378e-07 1.7198e-11 -181.29 -181.29 -1.2243 724.81 0.0013797 -181.29 -181.29 -1.2243 1.3461 1.9231 2082.0 -0.0077164 5878.8 0.20551 1.8915e-07 5.2868e+06 355.78 373.42 4.7068 0.72227 0.91082 149.13 4.8038 2.5456 0.0020915
-178.62 6.7459e-07 2.3214e-11 -179.37 -179.37 -1.2038 723.78 0.0013816 -179.37 -179.37 -1.2038 1.3453 1.9241 2075.2 -0.0077102 5482.9 0.20517 2.6096e-07 3.8320e+06 356.51 374.33 4.6538 0.72620 0.91475 149.84 4.6688 2.5731 0.0021410
-177.62 9.3358e-07 3.1085e-11 -177.44 -177.44 -1.1836 722.75 0.0013836 -177.44 -177.44 -1.1836 1.3445 1.9252 2068.4 -0.0077039 5122.6 0.20483 3.5737e-07 2.7982e+06 357.23 375.25 4.6022 0.73012 0.91867 150.54 4.5390 2.6005 0.0021907
-176.62 1.2826e-06 4.1304e-11 -175.52 -175.52 -1.1635 721.72 0.0013856 -175.52 -175.52 -1.1635 1.3437 1.9263 2061.5 -0.0076973 4794.1 0.20447 4.8588e-07 2.0581e+06 357.97 376.17 4.5519 0.73403 0.92258 151.25 4.4142 2.6280 0.0022408
-175.62 1.7496e-06 5.4469e-11 -173.59 -173.59 -1.1437 720.69 0.0013876 -173.59 -173.59 -1.1437 1.3430 1.9274 2054.7 -0.0076907 4494.3 0.20411 6.5601e-07 1.5244e+06 358.70 377.09 4.5029 0.73792 0.92648 151.95 4.2941 2.6555 0.0022912
-174.62 2.3705e-06 7.1303e-11 -171.66 -171.66 -1.1240 719.66 0.0013895 -171.66 -171.66 -1.1240 1.3423 1.9286 2047.9 -0.0076838 4220.2 0.20375 8.7976e-07 1.1367e+06 359.44 378.02 4.4551 0.74181 0.93036 152.64 4.1784 2.6830 0.0023418
-173.62 3.1903e-06 9.2671e-11 -169.73 -169.73 -1.1045 718.64 0.0013915 -169.73 -169.73 -1.1045 1.3417 1.9298 2041.0 -0.0076769 3969.3 0.20338 1.1721e-06 8.5314e+05 360.19 378.95 4.4085 0.74568 0.93423 153.33 4.0671 2.7105 0.0023928
-172.62 4.2661e-06 1.1960e-10 -167.80 -167.80 -1.0852 717.61 0.0013935 -167.80 -167.80 -1.0852 1.3411 1.9310 2034.2 -0.0076698 3739.3 0.20300 1.5518e-06 6.4441e+05 360.93 379.89 4.3631 0.74953 0.93809 154.02 3.9599 2.7379 0.0024440
-171.62 5.6692e-06 1.5330e-10 -165.87 -165.87 -1.0661 716.58 0.0013955 -165.87 -165.87 -1.0661 1.3405 1.9322 2027.3 -0.0076625 3528.0 0.20261 2.0419e-06 4.8974e+05 361.69 380.83 4.3188 0.75337 0.94193 154.71 3.8566 2.7654 0.0024955
-170.62 7.4884e-06 1.9519e-10 -163.94 -163.94 -1.0472 715.56 0.0013975 -163.94 -163.94 -1.0472 1.3400 1.9334 2020.5 -0.0076552 3333.8 0.20222 2.6708e-06 3.7442e+05 362.44 381.77 4.2755 0.75720 0.94575 155.39 3.7570 2.7929 0.0025473
-169.62 9.8334e-06 2.4689e-10 -162.00 -162.00 -1.0284 714.54 0.0013995 -162.00 -162.00 -1.0284 1.3395 1.9347 2013.6 -0.0076477 3154.9 0.20182 3.4733e-06 2.8791e+05 363.20 382.72 4.2334 0.76100 0.94956 156.07 3.6609 2.8204 0.0025994
-168.62 1.2839e-05 3.1027e-10 -160.07 -160.07 -1.0098 713.52 0.0014015 -160.07 -160.07 -1.0098 1.3390 1.9359 2006.8 -0.0076401 2989.9 0.20141 4.4917e-06 2.2263e+05 363.96 383.67 4.1922 0.76479 0.95335 156.74 3.5683 2.8479 0.0026518
-167.62 1.6672e-05 3.8746e-10 -158.13 -158.13 -0.99134 712.49 0.0014035 -158.13 -158.13 -0.99134 1.3386 1.9372 2000.0 -0.0076323 2837.5 0.20100 5.7771e-06 1.7310e+05 364.73 384.63 4.1521 0.76856 0.95712 157.41 3.4790 2.8754 0.0027045
-166.62 2.1533e-05 4.8085e-10 -156.19 -156.19 -0.97306 711.47 0.0014055 -156.19 -156.19 -0.97306 1.3382 1.9385 1993.1 -0.0076245 2696.5 0.20058 7.3914e-06 1.3529e+05 365.50 385.59 4.1129 0.77232 0.96087 158.08 3.3927 2.9029 0.0027575
-165.62 2.7666e-05 5.9310e-10 -154.25 -154.25 -0.95494 710.45 0.0014075 -154.25 -154.25 -0.95494 1.3378 1.9398 1986.3 -0.0076165 2566.0 0.20016 9.4084e-06 1.0629e+05 366.27 386.55 4.0746 0.77605 0.96460 158.75 3.3095 2.9304 0.0028108
-164.62 3.5367e-05 7.2711e-10 -152.31 -152.31 -0.93698 709.44 0.0014096 -152.31 -152.31 -0.93698 1.3375 1.9411 1979.4 -0.0076084 2444.9 0.19973 1.1916e-05 83918. 367.05 387.52 4.0372 0.77976 0.96832 159.41 3.2291 2.9579 0.0028643
-163.62 4.4989e-05 8.8607e-10 -150.37 -150.37 -0.91917 708.42 0.0014116 -150.37 -150.37 -0.91917 1.3371 1.9424 1972.6 -0.0076002 2332.3 0.19930 1.5020e-05 66577. 367.83 388.49 4.0008 0.78346 0.97201 160.07 3.1514 2.9854 0.0029182
-162.62 5.6956e-05 1.0734e-09 -148.43 -148.43 -0.90151 707.40 0.0014136 -148.43 -148.43 -0.90151 1.3368 1.9437 1965.8 -0.0075919 2227.7 0.19886 1.8844e-05 53068. 368.62 389.46 3.9651 0.78713 0.97569 160.72 3.0764 3.0129 0.0029723
-161.62 7.1773e-05 1.2926e-09 -146.48 -146.48 -0.88400 706.38 0.0014157 -146.48 -146.48 -0.88400 1.3365 1.9451 1959.0 -0.0075834 2130.2 0.19841 2.3533e-05 42494. 369.41 390.44 3.9304 0.79079 0.97935 161.38 3.0038 3.0404 0.0030268
-160.62 9.0036e-05 1.5475e-09 -144.54 -144.54 -0.86663 705.37 0.0014177 -144.54 -144.54 -0.86663 1.3363 1.9465 1952.1 -0.0075748 2039.2 0.19796 2.9258e-05 34178. 370.20 391.42 3.8964 0.79443 0.98298 162.03 2.9337 3.0679 0.0030815
-159.62 0.00011245 1.8417e-09 -142.59 -142.59 -0.84940 704.35 0.0014197 -142.59 -142.59 -0.84940 1.3360 1.9478 1945.3 -0.0075661 1954.2 0.19751 3.6221e-05 27609. 371.00 392.40 3.8632 0.79805 0.98660 162.68 2.8658 3.0955 0.0031365
-158.62 0.00013985 2.1789e-09 -140.64 -140.64 -0.83231 703.34 0.0014218 -140.64 -140.64 -0.83231 1.3358 1.9492 1938.5 -0.0075573 1874.8 0.19705 4.4652e-05 22395. 371.80 393.39 3.8307 0.80164 0.99020 163.32 2.8002 3.1230 0.0031918
-157.62 0.00017320 2.5626e-09 -138.69 -138.69 -0.81536 702.32 0.0014238 -138.69 -138.69 -0.81536 1.3356 1.9506 1931.7 -0.0075484 1800.3 0.19658 5.4822e-05 18241. 372.60 394.38 3.7990 0.80522 0.99378 163.96 2.7367 3.1505 0.0032474
-156.62 0.00021364 2.9959e-09 -136.74 -136.74 -0.79854 701.31 0.0014259 -136.74 -136.74 -0.79854 1.3354 1.9520 1924.9 -0.0075393 1730.5 0.19611 6.7040e-05 14916. 373.41 395.38 3.7680 0.80878 0.99734 164.60 2.6752 3.1780 0.0033033
-155.62 0.00026248 3.4810e-09 -134.79 -134.79 -0.78185 700.30 0.0014280 -134.79 -134.79 -0.78185 1.3352 1.9534 1918.1 -0.0075302 1664.9 0.19564 8.1666e-05 12245. 374.22 396.38 3.7377 0.81232 1.0009 165.24 2.6157 3.2055 0.0033595
-154.62 0.00032125 4.0196e-09 -132.83 -132.83 -0.76530 699.29 0.0014300 -132.83 -132.83 -0.76530 1.3350 1.9548 1911.3 -0.0075209 1603.3 0.19516 9.9109e-05 10090. 375.03 397.38 3.7081 0.81585 1.0044 165.87 2.5580 3.2330 0.0034160
-153.62 0.00039171 4.6118e-09 -130.88 -130.88 -0.74887 698.27 0.0014321 -130.88 -130.88 -0.74887 1.3349 1.9563 1904.5 -0.0075114 1545.3 0.19468 0.00011984 8344.6 375.85 398.39 3.6792 0.81935 1.0079 166.50 2.5022 3.2606 0.0034727
-152.62 0.00047590 5.2565e-09 -128.92 -128.92 -0.73256 697.26 0.0014342 -128.92 -128.92 -0.73256 1.3348 1.9577 1897.8 -0.0075019 1490.6 0.19419 0.00014439 6925.9 376.67 399.40 3.6509 0.82284 1.0114 167.13 2.4481 3.2881 0.0035298
-151.62 0.00057613 5.9500e-09 -126.96 -126.96 -0.71638 696.25 0.0014363 -126.96 -126.96 -0.71638 1.3346 1.9592 1891.0 -0.0074922 1438.9 0.19370 0.00017336 5768.4 377.49 400.41 3.6232 0.82631 1.0149 167.76 2.3957 3.3156 0.0035872
-150.62 0.00069507 6.6865e-09 -125.00 -125.00 -0.70032 695.24 0.0014384 -125.00 -125.00 -0.70032 1.3345 1.9606 1884.2 -0.0074824 1390.2 0.19320 0.00020744 4820.7 378.32 401.42 3.5962 0.82976 1.0183 168.38 2.3448 3.3431 0.0036448
-149.62 0.00083574 7.4565e-09 -123.04 -123.04 -0.68438 694.23 0.0014404 -123.04 -123.04 -0.68438 1.3345 1.9621 1877.4 -0.0074724 1344.0 0.19270 0.00024740 4042.0 379.15 402.44 3.5697 0.83319 1.0218 169.00 2.2956 3.3706 0.0037027
-148.62 0.0010016 8.2468e-09 -121.08 -121.08 -0.66855 693.22 0.0014425 -121.08 -121.08 -0.66855 1.3344 1.9636 1870.7 -0.0074623 1300.3 0.19220 0.00029412 3400.0 379.99 403.47 3.5438 0.83661 1.0252 169.62 2.2478 3.3982 0.0037610
-147.62 0.0011965 9.0393e-09 -119.11 -119.11 -0.65284 692.21 0.0014447 -119.11 -119.11 -0.65284 1.3343 1.9651 1863.9 -0.0074521 1258.9 0.19169 0.00034856 2869.0 380.83 404.49 3.5185 0.84001 1.0286 170.24 2.2014 3.4257 0.0038195
-146.62 0.0014249 9.8102e-09 -117.15 -117.15 -0.63724 691.20 0.0014468 -117.15 -117.15 -0.63724 1.3343 1.9666 1857.2 -0.0074417 1219.6 0.19117 0.00041181 2428.3 381.67 405.52 3.4938 0.84340 1.0320 170.85 2.1565 3.4532 0.0038783
-145.62 0.0016917 1.0529e-08 -115.18 -115.18 -0.62175 690.19 0.0014489 -115.18 -115.18 -0.62175 1.3343 1.9682 1850.4 -0.0074312 1182.3 0.19066 0.00048510 2061.4 382.51 406.56 3.4695 0.84677 1.0353 171.46 2.1128 3.4807 0.0039374
-144.62 0.0020026 1.1157e-08 -113.21 -113.21 -0.60637 689.18 0.0014510 -113.21 -113.21 -0.60637 1.3343 1.9697 1843.7 -0.0074206 1146.8 0.19014 0.00056976 1755.1 383.36 407.59 3.4458 0.85012 1.0387 172.07 2.0705 3.5082 0.0039967
-143.62 0.0023637 1.1646e-08 -111.24 -111.24 -0.59110 688.17 0.0014531 -111.24 -111.24 -0.59110 1.3343 1.9713 1836.9 -0.0074098 1113.0 0.18962 0.00066731 1498.6 384.21 408.63 3.4226 0.85346 1.0420 172.68 2.0294 3.5358 0.0040564
-142.62 0.0027820 1.1938e-08 -109.27 -109.27 -0.57593 687.16 0.0014553 -109.27 -109.27 -0.57593 1.3343 1.9728 1830.2 -0.0073988 1080.8 0.18909 0.00077939 1283.1 385.07 409.68 3.3999 0.85679 1.0454 173.28 1.9896 3.5633 0.0041164
-141.62 0.0032653 1.1961e-08 -107.30 -107.30 -0.56087 686.15 0.0014574 -107.30 -107.30 -0.56087 1.3343 1.9744 1823.5 -0.0073878 1050.1 0.18856 0.00090784 1101.5 385.93 410.72 3.3777 0.86011 1.0487 173.88 1.9508 3.5908 0.0041766
-140.62 0.0038222 1.1630e-08 -105.32 -105.32 -0.54591 685.14 0.0014596 -105.32 -105.32 -0.54591 1.3344 1.9760 1816.7 -0.0073765 1020.7 0.18803 0.0010547 948.16 386.79 411.77 3.3560 0.86341 1.0520 174.48 1.9133 3.6183 0.0042372
-139.62 0.0044623 1.0844e-08 -103.34 -103.34 -0.53105 684.13 0.0014617 -103.34 -103.34 -0.53105 1.3344 1.9776 1810.0 -0.0073651 992.74 0.18749 0.0012221 818.26 387.65 412.83 3.3347 0.86670 1.0553 175.08 1.8768 3.6459 0.0042980
-138.62 0.0051963 9.4813e-09 -101.37 -101.37 -0.51629 683.12 0.0014639 -101.37 -101.37 -0.51629 1.3345 1.9792 1803.3 -0.0073536 965.97 0.18695 0.0014125 707.94 388.52 413.88 3.3139 0.86998 1.0586 175.67 1.8413 3.6734 0.0043592
-137.62 0.0060358 7.4017e-09 -99.386 -99.386 -0.50162 682.11 0.0014660 -99.386 -99.386 -0.50162 1.3346 1.9808 1796.6 -0.0073419 940.35 0.18641 0.0016287 614.00 389.39 414.94 3.2935 0.87325 1.0619 176.26 1.8069 3.7009 0.0044206
-136.62 0.0069938 4.4406e-09 -97.404 -97.404 -0.48705 681.10 0.0014682 -97.404 -97.404 -0.48705 1.3347 1.9825 1789.9 -0.0073301 915.81 0.18586 0.0018733 533.80 390.26 416.00 3.2735 0.87650 1.0651 176.85 1.7734 3.7284 0.0044823
-135.62 0.0080843 4.0697e-10 -95.421 -95.421 -0.47258 680.09 0.0014704 -95.421 -95.421 -0.47258 1.3348 1.9841 1783.2 -0.0073180 892.30 0.18531 0.0021497 465.17 391.14 417.07 3.2540 0.87975 1.0684 177.44 1.7409 3.7559 0.0045443
-134.62 285.70 undefined -94.029 -91.132 -0.46249 680.00 0.0014706 -94.029 -91.132 -0.46249 1.3369 1.9839 1785.0 -0.0073196 883.67 0.18551 680.00 0.0014706 -94.029 -91.132 -0.46249 1.3369 1.9839 1785.0 -0.0073196 883.67 0.18551
-133.62 597.52 undefined -92.691 -86.633 -0.45287 680.00 0.0014706 -92.691 -86.633 -0.45287 1.3391 1.9836 1787.6 -0.0073224 876.55 0.18577 680.00 0.0014706 -92.691 -86.633 -0.45287 1.3391 1.9836 1787.6 -0.0073224 876.55 0.18577
-132.62 908.36 undefined -91.351 -82.141 -0.44330 680.00 0.0014706 -91.351 -82.141 -0.44330 1.3413 1.9833 1790.2 -0.0073251 869.58 0.18603 680.00 0.0014706 -91.351 -82.141 -0.44330 1.3413 1.9833 1790.2 -0.0073251 869.58 0.18603
-131.62 1218.2 undefined -90.009 -77.657 -0.43378 680.00 0.0014706 -90.009 -77.657 -0.43378 1.3435 1.9830 1792.8 -0.0073276 862.76 0.18630 680.00 0.0014706 -90.009 -77.657 -0.43378 1.3435 1.9830 1792.8 -0.0073276 862.76 0.18630
-130.62 1527.1 undefined -88.664 -73.180 -0.42431 680.00 0.0014706 -88.664 -73.180 -0.42431 1.3457 1.9827 1795.4 -0.0073300 856.08 0.18656 680.00 0.0014706 -88.664 -73.180 -0.42431 1.3457 1.9827 1795.4 -0.0073300 856.08 0.18656
-129.62 1835.0 undefined -87.317 -68.711 -0.41489 680.00 0.0014706 -87.317 -68.711 -0.41489 1.3479 1.9824 1798.0 -0.0073323 849.54 0.18683 680.00 0.0014706 -87.317 -68.711 -0.41489 1.3479 1.9824 1798.0 -0.0073323 849.54 0.18683
-128.62 2142.0 undefined -85.968 -64.250 -0.40553 680.00 0.0014706 -85.968 -64.250 -0.40553 1.3502 1.9822 1800.5 -0.0073345 843.14 0.18709 680.00 0.0014706 -85.968 -64.250 -0.40553 1.3502 1.9822 1800.5 -0.0073345 843.14 0.18709
-127.62 2448.0 undefined -84.617 -59.796 -0.39621 680.00 0.0014706 -84.617 -59.796 -0.39621 1.3524 1.9820 1803.1 -0.0073365 836.86 0.18736 680.00 0.0014706 -84.617 -59.796 -0.39621 1.3524 1.9820 1803.1 -0.0073365 836.86 0.18736
-126.62 2753.1 undefined -83.263 -55.349 -0.38694 680.00 0.0014706 -83.263 -55.349 -0.38694 1.3546 1.9819 1805.6 -0.0073385 830.72 0.18763 680.00 0.0014706 -83.263 -55.349 -0.38694 1.3546 1.9819 1805.6 -0.0073385 830.72 0.18763
-125.62 3057.2 undefined -81.908 -50.909 -0.37772 680.00 0.0014706 -81.908 -50.909 -0.37772 1.3568 1.9818 1808.1 -0.0073403 824.70 0.18789 680.00 0.0014706 -81.908 -50.909 -0.37772 1.3568 1.9818 1808.1 -0.0073403 824.70 0.18789
-124.62 3360.5 undefined -80.550 -46.477 -0.36855 680.00 0.0014706 -80.550 -46.477 -0.36855 1.3590 1.9817 1810.7 -0.0073420 818.80 0.18816 680.00 0.0014706 -80.550 -46.477 -0.36855 1.3590 1.9817 1810.7 -0.0073420 818.80 0.18816
-123.62 3662.8 undefined -79.190 -42.051 -0.35942 680.00 0.0014706 -79.190 -42.051 -0.35942 1.3612 1.9816 1813.2 -0.0073435 813.02 0.18843 680.00 0.0014706 -79.190 -42.051 -0.35942 1.3612 1.9816 1813.2 -0.0073435 813.02 0.18843
-122.62 3964.3 undefined -77.827 -37.632 -0.35034 680.00 0.0014706 -77.827 -37.632 -0.35034 1.3634 1.9815 1815.6 -0.0073450 807.35 0.18869 680.00 0.0014706 -77.827 -37.632 -0.35034 1.3634 1.9815 1815.6 -0.0073450 807.35 0.18869
-121.62 4264.8 undefined -76.463 -33.220 -0.34130 680.00 0.0014706 -76.463 -33.220 -0.34130 1.3656 1.9815 1818.1 -0.0073463 801.79 0.18896 680.00 0.0014706 -76.463 -33.220 -0.34130 1.3656 1.9815 1818.1 -0.0073463 801.79 0.18896
-120.62 4564.5 undefined -75.096 -28.815 -0.33231 680.00 0.0014706 -75.096 -28.815 -0.33231 1.3679 1.9815 1820.6 -0.0073475 796.35 0.18923 680.00 0.0014706 -75.096 -28.815 -0.33231 1.3679 1.9815 1820.6 -0.0073475 796.35 0.18923
-119.62 4863.3 undefined -73.727 -24.416 -0.32337 680.00 0.0014706 -73.727 -24.416 -0.32337 1.3701 1.9816 1823.0 -0.0073486 791.00 0.18950 680.00 0.0014706 -73.727 -24.416 -0.32337 1.3701 1.9816 1823.0 -0.0073486 791.00 0.18950
-118.62 5161.3 undefined -72.356 -20.024 -0.31447 680.00 0.0014706 -72.356 -20.024 -0.31447 1.3723 1.9816 1825.4 -0.0073495 785.76 0.18976 680.00 0.0014706 -72.356 -20.024 -0.31447 1.3723 1.9816 1825.4 -0.0073495 785.76 0.18976
-117.62 5458.3 undefined -70.982 -15.639 -0.30561 680.00 0.0014706 -70.982 -15.639 -0.30561 1.3745 1.9817 1827.8 -0.0073504 780.62 0.19003 680.00 0.0014706 -70.982 -15.639 -0.30561 1.3745 1.9817 1827.8 -0.0073504 780.62 0.19003
-116.62 5754.6 undefined -69.607 -11.259 -0.29679 680.00 0.0014706 -69.607 -11.259 -0.29679 1.3768 1.9819 1830.2 -0.0073511 775.58 0.19030 680.00 0.0014706 -69.607 -11.259 -0.29679 1.3768 1.9819 1830.2 -0.0073511 775.58 0.19030
-115.62 6049.9 undefined -68.229 -6.8864 -0.28801 680.00 0.0014706 -68.229 -6.8864 -0.28801 1.3790 1.9820 1832.6 -0.0073517 770.63 0.19057 680.00 0.0014706 -68.229 -6.8864 -0.28801 1.3790 1.9820 1832.6 -0.0073517 770.63 0.19057
-114.62 6344.5 undefined -66.849 -2.5197 -0.27928 680.00 0.0014706 -66.849 -2.5197 -0.27928 1.3813 1.9822 1835.0 -0.0073522 765.78 0.19084 680.00 0.0014706 -66.849 -2.5197 -0.27928 1.3813 1.9822 1835.0 -0.0073522 765.78 0.19084
-113.62 6638.2 undefined -65.466 1.8409 -0.27059 680.00 0.0014706 -65.466 1.8409 -0.27059 1.3836 1.9824 1837.3 -0.0073526 761.02 0.19111 680.00 0.0014706 -65.466 1.8409 -0.27059 1.3836 1.9824 1837.3 -0.0073526 761.02 0.19111
-112.62 6931.1 undefined -64.082 6.1953 -0.26193 680.00 0.0014706 -64.082 6.1953 -0.26193 1.3858 1.9826 1839.7 -0.0073529 756.34 0.19138 680.00 0.0014706 -64.082 6.1953 -0.26193 1.3858 1.9826 1839.7 -0.0073529 756.34 0.19138
-111.62 7223.2 undefined -62.695 10.544 -0.25332 680.00 0.0014706 -62.695 10.544 -0.25332 1.3881 1.9829 1842.0 -0.0073530 751.75 0.19165 680.00 0.0014706 -62.695 10.544 -0.25332 1.3881 1.9829 1842.0 -0.0073530 751.75 0.19165
-110.62 7514.5 undefined -61.305 14.886 -0.24475 680.00 0.0014706 -61.305 14.886 -0.24475 1.3904 1.9832 1844.3 -0.0073530 747.24 0.19192 680.00 0.0014706 -61.305 14.886 -0.24475 1.3904 1.9832 1844.3 -0.0073530 747.24 0.19192
-109.62 7804.9 undefined -59.914 19.223 -0.23621 680.00 0.0014706 -59.914 19.223 -0.23621 1.3927 1.9835 1846.6 -0.0073529 742.82 0.19219 680.00 0.0014706 -59.914 19.223 -0.23621 1.3927 1.9835 1846.6 -0.0073529 742.82 0.19219
-108.62 8094.6 undefined -58.520 23.554 -0.22771 680.00 0.0014706 -58.520 23.554 -0.22771 1.3950 1.9839 1848.9 -0.0073527 738.48 0.19246 680.00 0.0014706 -58.520 23.554 -0.22771 1.3950 1.9839 1848.9 -0.0073527 738.48 0.19246
-107.62 8383.5 undefined -57.124 27.879 -0.21925 680.00 0.0014706 -57.124 27.879 -0.21925 1.3973 1.9842 1851.1 -0.0073524 734.21 0.19274 680.00 0.0014706 -57.124 27.879 -0.21925 1.3973 1.9842 1851.1 -0.0073524 734.21 0.19274
-106.62 8671.6 undefined -55.725 32.199 -0.21083 680.00 0.0014706 -55.725 32.199 -0.21083 1.3996 1.9846 1853.4 -0.0073519 730.02 0.19301 680.00 0.0014706 -55.725 32.199 -0.21083 1.3996 1.9846 1853.4 -0.0073519 730.02 0.19301
-105.62 8958.9 undefined -54.325 36.513 -0.20244 680.00 0.0014706 -54.325 36.513 -0.20244 1.4020 1.9851 1855.6 -0.0073513 725.90 0.19328 680.00 0.0014706 -54.325 36.513 -0.20244 1.4020 1.9851 1855.6 -0.0073513 725.90 0.19328
-104.62 9245.5 undefined -52.921 40.822 -0.19409 680.00 0.0014706 -52.921 40.822 -0.19409 1.4043 1.9855 1857.8 -0.0073506 721.86 0.19355 680.00 0.0014706 -52.921 40.822 -0.19409 1.4043 1.9855 1857.8 -0.0073506 721.86 0.19355
