Temperature (C) Pressure (psia) Quality (l+v) Internal Energy (l+v, kJ/kg) Enthalpy (l+v, kJ/kg) Entropy (l+v, J/g*K) Density (l, kg/m3) Volume (l, m3/kg) Internal Energy (l, kJ/kg) Enthalpy (l, kJ/kg) Entropy (l, J/g*K) Cv (l, J/g*K) Cp (l, J/g*K) Sound Spd. (l, m/s) Joule-Thomson (l, F/psia) Viscosity (l, uPa*s) Therm. Cond. (l, W/m*K) Density (v, kg/m3) Volume (v, m3/kg) Internal Energy (v, kJ/kg) Enthalpy (v, kJ/kg) Entropy (v, J/g*K) Cv (v, J/g*K) Cp (v, J/g*K) Sound Spd. (v, m/s) Joule-Thomson (v, F/psia) Viscosity (v, uPa*s) Therm. Cond. (v, W/m*K)
-187.62 2.4953e-08 7.9829e-13 -196.64 -196.64 -1.3959 733.13 0.0013640 -196.64 -196.64 -1.3959 1.3553 1.9158 2136.4 -0.0077592 10960. 0.20792 1.0669e-08 9.3732e+07 350.13 366.26 5.1858 0.69067 0.87923 143.28 6.1051 2.3259 0.0017061
-186.62 3.7339e-08 1.1501e-12 -194.73 -194.73 -1.3736 732.08 0.0013660 -194.73 -194.73 -1.3736 1.3539 1.9166 2129.6 -0.0077546 10073. 0.20765 1.5780e-08 6.3371e+07 350.82 367.14 5.1200 0.69462 0.88317 144.03 5.9178 2.3534 0.0017533
-185.62 5.5322e-08 1.6394e-12 -192.81 -192.81 -1.3516 731.04 0.0013679 -192.81 -192.81 -1.3516 1.3525 1.9174 2122.9 -0.0077498 9276.1 0.20737 2.3112e-08 4.3267e+07 351.52 368.02 5.0561 0.69857 0.88713 144.77 5.7383 2.3808 0.0018007
-184.62 8.1182e-08 2.3132e-12 -190.89 -190.89 -1.3298 730.00 0.0013699 -190.89 -190.89 -1.3298 1.3513 1.9182 2116.1 -0.0077448 8557.8 0.20708 3.3533e-08 2.9821e+07 352.22 368.91 4.9939 0.70253 0.89108 145.51 5.5662 2.4083 0.0018485
-183.62 1.1803e-07 3.2315e-12 -188.97 -188.97 -1.3083 728.96 0.0013718 -188.97 -188.97 -1.3083 1.3501 1.9191 2109.3 -0.0077395 7909.8 0.20678 4.8211e-08 2.0742e+07 352.92 369.81 4.9333 0.70648 0.89504 146.24 5.4011 2.4357 0.0018965
-182.62 1.7009e-07 4.4708e-12 -187.05 -187.05 -1.2869 727.92 0.0013738 -187.05 -187.05 -1.2869 1.3490 1.9201 2102.5 -0.0077340 7324.3 0.20647 6.8704e-08 1.4555e+07 353.63 370.70 4.8744 0.71043 0.89899 146.97 5.2426 2.4632 0.0019448
-181.62 2.4299e-07 6.1270e-12 -185.13 -185.13 -1.2658 726.88 0.0013757 -185.13 -185.13 -1.2658 1.3480 1.9210 2095.7 -0.0077283 6794.5 0.20616 9.7079e-08 1.0301e+07 354.35 371.60 4.8170 0.71438 0.90294 147.69 5.0904 2.4906 0.0019934
-180.62 3.4425e-07 8.3195e-12 -183.21 -183.21 -1.2450 725.85 0.0013777 -183.21 -183.21 -1.2450 1.3470 1.9220 2088.9 -0.0077225 6314.4 0.20584 1.3605e-07 7.3504e+06 355.06 372.51 4.7612 0.71833 0.90688 148.41 4.9442 2.5181 0.0020423
-179.62 4.8378e-07 1.1195e-11 -181.29 -181.29 -1.2243 724.81 0.0013797 -181.29 -181.29 -1.2243 1.3461 1.9231 2082.0 -0.0077164 5878.8 0.20551 1.8915e-07 5.2868e+06 355.78 373.42 4.7068 0.72227 0.91082 149.13 4.8038 2.5456 0.0020915
-178.62 6.7459e-07 1.4931e-11 -179.37 -179.37 -1.2038 723.78 0.0013816 -179.37 -179.37 -1.2038 1.3453 1.9241 2075.2 -0.0077102 5482.9 0.20517 2.6096e-07 3.8320e+06 356.51 374.33 4.6538 0.72620 0.91475 149.84 4.6688 2.5731 0.0021410
-177.62 9.3358e-07 1.9743e-11 -177.44 -177.44 -1.1836 722.75 0.0013836 -177.44 -177.44 -1.1836 1.3445 1.9252 2068.4 -0.0077039 5122.6 0.20483 3.5737e-07 2.7982e+06 357.23 375.25 4.6022 0.73012 0.91867 150.54 4.5390 2.6005 0.0021907
-176.62 1.2826e-06 2.5883e-11 -175.52 -175.52 -1.1635 721.72 0.0013856 -175.52 -175.52 -1.1635 1.3437 1.9263 2061.5 -0.0076973 4794.1 0.20447 4.8588e-07 2.0581e+06 357.97 376.17 4.5519 0.73403 0.92258 151.25 4.4142 2.6280 0.0022408
-175.62 1.7496e-06 3.3647e-11 -173.59 -173.59 -1.1437 720.69 0.0013876 -173.59 -173.59 -1.1437 1.3430 1.9274 2054.7 -0.0076907 4494.3 0.20411 6.5601e-07 1.5244e+06 358.70 377.09 4.5029 0.73792 0.92648 151.95 4.2941 2.6555 0.0022912
-174.62 2.3705e-06 4.3380e-11 -171.66 -171.66 -1.1240 719.66 0.0013895 -171.66 -171.66 -1.1240 1.3423 1.9286 2047.9 -0.0076838 4220.2 0.20375 8.7976e-07 1.1367e+06 359.44 378.02 4.4551 0.74181 0.93036 152.64 4.1784 2.6830 0.0023418
-173.62 3.1903e-06 5.5469e-11 -169.73 -169.73 -1.1045 718.64 0.0013915 -169.73 -169.73 -1.1045 1.3417 1.9298 2041.0 -0.0076769 3969.3 0.20338 1.1721e-06 8.5314e+05 360.19 378.95 4.4085 0.74568 0.93423 153.33 4.0671 2.7105 0.0023928
-172.62 4.2661e-06 7.0349e-11 -167.80 -167.80 -1.0852 717.61 0.0013935 -167.80 -167.80 -1.0852 1.3411 1.9310 2034.2 -0.0076698 3739.3 0.20300 1.5518e-06 6.4441e+05 360.93 379.89 4.3631 0.74953 0.93809 154.02 3.9599 2.7379 0.0024440
-171.62 5.6692e-06 8.8496e-11 -165.87 -165.87 -1.0661 716.58 0.0013955 -165.87 -165.87 -1.0661 1.3405 1.9322 2027.3 -0.0076625 3528.0 0.20261 2.0419e-06 4.8974e+05 361.69 380.83 4.3188 0.75337 0.94193 154.71 3.8566 2.7654 0.0024955
-170.62 7.4884e-06 1.1042e-10 -163.94 -163.94 -1.0472 715.56 0.0013975 -163.94 -163.94 -1.0472 1.3400 1.9334 2020.5 -0.0076552 3333.8 0.20222 2.6708e-06 3.7442e+05 362.44 381.77 4.2755 0.75720 0.94575 155.39 3.7570 2.7929 0.0025473
-169.62 9.8334e-06 1.3665e-10 -162.00 -162.00 -1.0284 714.54 0.0013995 -162.00 -162.00 -1.0284 1.3395 1.9347 2013.6 -0.0076477 3154.9 0.20182 3.4733e-06 2.8791e+05 363.20 382.72 4.2334 0.76100 0.94956 156.07 3.6609 2.8204 0.0025994
-168.62 1.2839e-05 1.6771e-10 -160.07 -160.07 -1.0098 713.52 0.0014015 -160.07 -160.07 -1.0098 1.3390 1.9359 2006.8 -0.0076401 2989.9 0.20141 4.4917e-06 2.2263e+05 363.96 383.67 4.1922 0.76479 0.95335 156.74 3.5683 2.8479 0.0026518
-167.62 1.6672e-05 2.0410e-10 -158.13 -158.13 -0.99134 712.49 0.0014035 -158.13 -158.13 -0.99134 1.3386 1.9372 2000.0 -0.0076323 2837.5 0.20100 5.7771e-06 1.7310e+05 364.73 384.63 4.1521 0.76856 0.95712 157.41 3.4790 2.8754 0.0027045
-166.62 2.1533e-05 2.4626e-10 -156.19 -156.19 -0.97306 711.47 0.0014055 -156.19 -156.19 -0.97306 1.3382 1.9385 1993.1 -0.0076245 2696.5 0.20058 7.3914e-06 1.3529e+05 365.50 385.59 4.1129 0.77232 0.96087 158.08 3.3927 2.9029 0.0027575
-165.62 2.7666e-05 2.9448e-10 -154.25 -154.25 -0.95494 710.45 0.0014075 -154.25 -154.25 -0.95494 1.3378 1.9398 1986.3 -0.0076165 2566.0 0.20016 9.4084e-06 1.0629e+05 366.27 386.55 4.0746 0.77605 0.96460 158.75 3.3095 2.9304 0.0028108
-164.62 3.5367e-05 3.4889e-10 -152.31 -152.31 -0.93698 709.44 0.0014096 -152.31 -152.31 -0.93698 1.3375 1.9411 1979.4 -0.0076084 2444.9 0.19973 1.1916e-05 83918. 367.05 387.52 4.0372 0.77976 0.96832 159.41 3.2291 2.9579 0.0028643
-163.62 4.4989e-05 4.0935e-10 -150.37 -150.37 -0.91917 708.42 0.0014116 -150.37 -150.37 -0.91917 1.3371 1.9424 1972.6 -0.0076002 2332.3 0.19930 1.5020e-05 66577. 367.83 388.49 4.0008 0.78346 0.97201 160.07 3.1514 2.9854 0.0029182
-162.62 5.6956e-05 4.7530e-10 -148.43 -148.43 -0.90151 707.40 0.0014136 -148.43 -148.43 -0.90151 1.3368 1.9437 1965.8 -0.0075919 2227.7 0.19886 1.8844e-05 53068. 368.62 389.46 3.9651 0.78713 0.97569 160.72 3.0764 3.0129 0.0029723
-161.62 7.1773e-05 5.4570e-10 -146.48 -146.48 -0.88400 706.38 0.0014157 -146.48 -146.48 -0.88400 1.3365 1.9451 1959.0 -0.0075834 2130.2 0.19841 2.3533e-05 42494. 369.41 390.44 3.9304 0.79079 0.97935 161.38 3.0038 3.0404 0.0030268
-160.62 9.0036e-05 6.1883e-10 -144.54 -144.54 -0.86663 705.37 0.0014177 -144.54 -144.54 -0.86663 1.3363 1.9465 1952.1 -0.0075748 2039.2 0.19796 2.9258e-05 34178. 370.20 391.42 3.8964 0.79443 0.98298 162.03 2.9337 3.0679 0.0030815
-159.62 0.00011245 6.9207e-10 -142.59 -142.59 -0.84940 704.35 0.0014197 -142.59 -142.59 -0.84940 1.3360 1.9478 1945.3 -0.0075661 1954.2 0.19751 3.6221e-05 27609. 371.00 392.40 3.8632 0.79805 0.98660 162.68 2.8658 3.0955 0.0031365
-158.62 0.00013985 7.6171e-10 -140.64 -140.64 -0.83231 703.34 0.0014218 -140.64 -140.64 -0.83231 1.3358 1.9492 1938.5 -0.0075573 1874.8 0.19705 4.4652e-05 22395. 371.80 393.39 3.8307 0.80164 0.99020 163.32 2.8002 3.1230 0.0031918
-157.62 0.00017320 8.2265e-10 -138.69 -138.69 -0.81536 702.32 0.0014238 -138.69 -138.69 -0.81536 1.3356 1.9506 1931.7 -0.0075484 1800.3 0.19658 5.4822e-05 18241. 372.60 394.38 3.7990 0.80522 0.99378 163.96 2.7367 3.1505 0.0032474
-156.62 0.00021364 8.6805e-10 -136.74 -136.74 -0.79854 701.31 0.0014259 -136.74 -136.74 -0.79854 1.3354 1.9520 1924.9 -0.0075393 1730.5 0.19611 6.7040e-05 14916. 373.41 395.38 3.7680 0.80878 0.99734 164.60 2.6752 3.1780 0.0033033
-155.62 0.00026248 8.8897e-10 -134.79 -134.79 -0.78185 700.30 0.0014280 -134.79 -134.79 -0.78185 1.3352 1.9534 1918.1 -0.0075302 1664.9 0.19564 8.1666e-05 12245. 374.22 396.38 3.7377 0.81232 1.0009 165.24 2.6157 3.2055 0.0033595
-154.62 0.00032125 8.7390e-10 -132.83 -132.83 -0.76530 699.29 0.0014300 -132.83 -132.83 -0.76530 1.3350 1.9548 1911.3 -0.0075209 1603.3 0.19516 9.9109e-05 10090. 375.03 397.38 3.7081 0.81585 1.0044 165.87 2.5580 3.2330 0.0034160
-153.62 0.00039171 8.0826e-10 -130.88 -130.88 -0.74887 698.27 0.0014321 -130.88 -130.88 -0.74887 1.3349 1.9563 1904.5 -0.0075114 1545.3 0.19468 0.00011984 8344.6 375.85 398.39 3.6792 0.81935 1.0079 166.50 2.5022 3.2606 0.0034727
-152.62 0.00047590 6.7377e-10 -128.92 -128.92 -0.73256 697.26 0.0014342 -128.92 -128.92 -0.73256 1.3348 1.9577 1897.8 -0.0075019 1490.6 0.19419 0.00014439 6925.9 376.67 399.40 3.6509 0.82284 1.0114 167.13 2.4481 3.2881 0.0035298
-151.62 0.00057613 4.4777e-10 -126.96 -126.96 -0.71638 696.25 0.0014363 -126.96 -126.96 -0.71638 1.3346 1.9592 1891.0 -0.0074922 1438.9 0.19370 0.00017336 5768.4 377.49 400.41 3.6232 0.82631 1.0149 167.76 2.3957 3.3156 0.0035872
-150.62 0.00069507 1.0249e-10 -125.00 -125.00 -0.70032 695.24 0.0014384 -125.00 -125.00 -0.70032 1.3345 1.9606 1884.2 -0.0074824 1390.2 0.19320 0.00020744 4820.7 378.32 401.42 3.5962 0.82976 1.0183 168.38 2.3448 3.3431 0.0036448
-149.62 269.76 undefined -123.52 -120.84 -0.68826 695.00 0.0014388 -123.52 -120.84 -0.68826 1.3362 1.9609 1884.7 -0.0074807 1365.5 0.19331 695.00 0.0014388 -123.52 -120.84 -0.68826 1.3362 1.9609 1884.7 -0.0074807 1365.5 0.19331
-148.62 621.79 undefined -122.18 -116.01 -0.67748 695.00 0.0014388 -122.18 -116.01 -0.67748 1.3384 1.9607 1887.4 -0.0074814 1348.2 0.19362 695.00 0.0014388 -122.18 -116.01 -0.67748 1.3384 1.9607 1887.4 -0.0074814 1348.2 0.19362
-147.62 972.55 undefined -120.84 -111.20 -0.66676 695.00 0.0014388 -120.84 -111.20 -0.66676 1.3406 1.9606 1890.1 -0.0074821 1331.4 0.19392 695.00 0.0014388 -120.84 -111.20 -0.66676 1.3406 1.9606 1890.1 -0.0074821 1331.4 0.19392
-146.62 1322.1 undefined -119.50 -106.39 -0.65612 695.00 0.0014388 -119.50 -106.39 -0.65612 1.3428 1.9605 1892.8 -0.0074827 1315.2 0.19423 695.00 0.0014388 -119.50 -106.39 -0.65612 1.3428 1.9605 1892.8 -0.0074827 1315.2 0.19423
-145.62 1670.3 undefined -118.16 -101.59 -0.64554 695.00 0.0014388 -118.16 -101.59 -0.64554 1.3449 1.9604 1895.5 -0.0074832 1299.4 0.19454 695.00 0.0014388 -118.16 -101.59 -0.64554 1.3449 1.9604 1895.5 -0.0074832 1299.4 0.19454
-144.62 2017.4 undefined -116.81 -96.798 -0.63502 695.00 0.0014388 -116.81 -96.798 -0.63502 1.3471 1.9604 1898.1 -0.0074837 1284.1 0.19484 695.00 0.0014388 -116.81 -96.798 -0.63502 1.3471 1.9604 1898.1 -0.0074837 1284.1 0.19484
-143.62 2363.3 undefined -115.46 -92.019 -0.62458 695.00 0.0014388 -115.46 -92.019 -0.62458 1.3492 1.9603 1900.8 -0.0074840 1269.2 0.19515 695.00 0.0014388 -115.46 -92.019 -0.62458 1.3492 1.9603 1900.8 -0.0074840 1269.2 0.19515
-142.62 2708.0 undefined -114.11 -87.249 -0.61419 695.00 0.0014388 -114.11 -87.249 -0.61419 1.3514 1.9603 1903.4 -0.0074843 1254.8 0.19546 695.00 0.0014388 -114.11 -87.249 -0.61419 1.3514 1.9603 1903.4 -0.0074843 1254.8 0.19546
-141.62 3051.5 undefined -112.76 -82.489 -0.60387 695.00 0.0014388 -112.76 -82.489 -0.60387 1.3535 1.9603 1906.1 -0.0074845 1240.7 0.19576 695.00 0.0014388 -112.76 -82.489 -0.60387 1.3535 1.9603 1906.1 -0.0074845 1240.7 0.19576
-140.62 3393.8 undefined -111.41 -77.738 -0.59361 695.00 0.0014388 -111.41 -77.738 -0.59361 1.3557 1.9603 1908.7 -0.0074846 1227.1 0.19607 695.00 0.0014388 -111.41 -77.738 -0.59361 1.3557 1.9603 1908.7 -0.0074846 1227.1 0.19607
-139.62 3735.0 undefined -110.05 -72.997 -0.58341 695.00 0.0014388 -110.05 -72.997 -0.58341 1.3578 1.9604 1911.3 -0.0074847 1213.8 0.19638 695.00 0.0014388 -110.05 -72.997 -0.58341 1.3578 1.9604 1911.3 -0.0074847 1213.8 0.19638
-138.62 4075.0 undefined -108.69 -68.264 -0.57327 695.00 0.0014388 -108.69 -68.264 -0.57327 1.3599 1.9604 1913.9 -0.0074846 1200.9 0.19668 695.00 0.0014388 -108.69 -68.264 -0.57327 1.3599 1.9604 1913.9 -0.0074846 1200.9 0.19668
-137.62 4414.0 undefined -107.33 -63.541 -0.56319 695.00 0.0014388 -107.33 -63.541 -0.56319 1.3620 1.9605 1916.5 -0.0074845 1188.3 0.19699 695.00 0.0014388 -107.33 -63.541 -0.56319 1.3620 1.9605 1916.5 -0.0074845 1188.3 0.19699
-136.62 4751.8 undefined -105.97 -58.827 -0.55317 695.00 0.0014388 -105.97 -58.827 -0.55317 1.3642 1.9606 1919.1 -0.0074843 1176.0 0.19730 695.00 0.0014388 -105.97 -58.827 -0.55317 1.3642 1.9606 1919.1 -0.0074843 1176.0 0.19730
-135.62 5088.5 undefined -104.60 -54.121 -0.54321 695.00 0.0014388 -104.60 -54.121 -0.54321 1.3663 1.9607 1921.7 -0.0074841 1164.1 0.19761 695.00 0.0014388 -104.60 -54.121 -0.54321 1.3663 1.9607 1921.7 -0.0074841 1164.1 0.19761
-134.62 5424.2 undefined -103.23 -49.424 -0.53330 695.00 0.0014388 -103.23 -49.424 -0.53330 1.3684 1.9609 1924.2 -0.0074837 1152.5 0.19792 695.00 0.0014388 -103.23 -49.424 -0.53330 1.3684 1.9609 1924.2 -0.0074837 1152.5 0.19792
-133.62 5758.7 undefined -101.86 -44.735 -0.52345 695.00 0.0014388 -101.86 -44.735 -0.52345 1.3705 1.9610 1926.7 -0.0074833 1141.2 0.19823 695.00 0.0014388 -101.86 -44.735 -0.52345 1.3705 1.9610 1926.7 -0.0074833 1141.2 0.19823
-132.62 6092.2 undefined -100.49 -40.056 -0.51365 695.00 0.0014388 -100.49 -40.056 -0.51365 1.3726 1.9612 1929.3 -0.0074828 1130.1 0.19854 695.00 0.0014388 -100.49 -40.056 -0.51365 1.3726 1.9612 1929.3 -0.0074828 1130.1 0.19854
-131.62 6424.6 undefined -99.120 -35.384 -0.50391 695.00 0.0014388 -99.120 -35.384 -0.50391 1.3748 1.9614 1931.8 -0.0074823 1119.4 0.19885 695.00 0.0014388 -99.120 -35.384 -0.50391 1.3748 1.9614 1931.8 -0.0074823 1119.4 0.19885
-130.62 6756.0 undefined -97.744 -30.721 -0.49423 695.00 0.0014388 -97.744 -30.721 -0.49423 1.3769 1.9616 1934.2 -0.0074817 1108.9 0.19916 695.00 0.0014388 -97.744 -30.721 -0.49423 1.3769 1.9616 1934.2 -0.0074817 1108.9 0.19916
-129.62 7086.4 undefined -96.366 -26.066 -0.48459 695.00 0.0014388 -96.366 -26.066 -0.48459 1.3790 1.9618 1936.7 -0.0074810 1098.6 0.19947 695.00 0.0014388 -96.366 -26.066 -0.48459 1.3790 1.9618 1936.7 -0.0074810 1098.6 0.19947
-128.62 7415.7 undefined -94.986 -21.419 -0.47501 695.00 0.0014388 -94.986 -21.419 -0.47501 1.3811 1.9621 1939.2 -0.0074802 1088.6 0.19978 695.00 0.0014388 -94.986 -21.419 -0.47501 1.3811 1.9621 1939.2 -0.0074802 1088.6 0.19978
-127.62 7744.0 undefined -93.604 -16.780 -0.46548 695.00 0.0014388 -93.604 -16.780 -0.46548 1.3833 1.9623 1941.6 -0.0074793 1078.9 0.20009 695.00 0.0014388 -93.604 -16.780 -0.46548 1.3833 1.9623 1941.6 -0.0074793 1078.9 0.20009
-126.62 8071.2 undefined -92.219 -12.148 -0.45600 695.00 0.0014388 -92.219 -12.148 -0.45600 1.3854 1.9626 1944.0 -0.0074784 1069.3 0.20040 695.00 0.0014388 -92.219 -12.148 -0.45600 1.3854 1.9626 1944.0 -0.0074784 1069.3 0.20040
-125.62 8397.5 undefined -90.833 -7.5250 -0.44657 695.00 0.0014388 -90.833 -7.5250 -0.44657 1.3875 1.9629 1946.4 -0.0074774 1060.0 0.20071 695.00 0.0014388 -90.833 -7.5250 -0.44657 1.3875 1.9629 1946.4 -0.0074774 1060.0 0.20071
-124.62 8722.8 undefined -89.444 -2.9094 -0.43719 695.00 0.0014388 -89.444 -2.9094 -0.43719 1.3897 1.9633 1948.8 -0.0074763 1051.0 0.20102 695.00 0.0014388 -89.444 -2.9094 -0.43719 1.3897 1.9633 1948.8 -0.0074763 1051.0 0.20102
-123.62 9047.1 undefined -88.054 1.6986 -0.42786 695.00 0.0014388 -88.054 1.6986 -0.42786 1.3918 1.9636 1951.2 -0.0074751 1042.1 0.20134 695.00 0.0014388 -88.054 1.6986 -0.42786 1.3918 1.9636 1951.2 -0.0074751 1042.1 0.20134
-122.62 9370.5 undefined -86.661 6.2991 -0.41857 695.00 0.0014388 -86.661 6.2991 -0.41857 1.3940 1.9640 1953.5 -0.0074739 1033.4 0.20165 695.00 0.0014388 -86.661 6.2991 -0.41857 1.3940 1.9640 1953.5 -0.0074739 1033.4 0.20165
-121.62 9692.8 undefined -85.266 10.892 -0.40933 695.00 0.0014388 -85.266 10.892 -0.40933 1.3961 1.9644 1955.9 -0.0074726 1024.9 0.20196 695.00 0.0014388 -85.266 10.892 -0.40933 1.3961 1.9644 1955.9 -0.0074726 1024.9 0.20196
-120.62 10014. undefined -83.868 15.478 -0.40014 695.00 0.0014388 -83.868 15.478 -0.40014 1.3983 1.9648 1958.2 -0.0074712 1016.6 0.20227 695.00 0.0014388 -83.868 15.478 -0.40014 1.3983 1.9648 1958.2 -0.0074712 1016.6 0.20227
-119.62 10335. undefined -82.469 20.056 -0.39100 695.00 0.0014388 -82.469 20.056 -0.39100 1.4004 1.9652 1960.5 -0.0074697 1008.5 0.20259 695.00 0.0014388 -82.469 20.056 -0.39100 1.4004 1.9652 1960.5 -0.0074697 1008.5 0.20259
-118.62 10654. undefined -81.068 24.627 -0.38190 695.00 0.0014388 -81.068 24.627 -0.38190 1.4026 1.9657 1962.8 -0.0074681 1000.6 0.20290 695.00 0.0014388 -81.068 24.627 -0.38190 1.4026 1.9657 1962.8 -0.0074681 1000.6 0.20290
-117.62 10973. undefined -79.664 29.191 -0.37285 695.00 0.0014388 -79.664 29.191 -0.37285 1.4048 1.9662 1965.1 -0.0074665 992.79 0.20322 695.00 0.0014388 -79.664 29.191 -0.37285 1.4048 1.9662 1965.1 -0.0074665 992.79 0.20322
-116.62 11290. undefined -78.258 33.748 -0.36383 695.00 0.0014388 -78.258 33.748 -0.36383 1.4070 1.9667 1967.3 -0.0074648 985.18 0.20353 695.00 0.0014388 -78.258 33.748 -0.36383 1.4070 1.9667 1967.3 -0.0074648 985.18 0.20353
-115.62 11607. undefined -76.850 38.298 -0.35487 695.00 0.0014388 -76.850 38.298 -0.35487 1.4092 1.9672 1969.6 -0.0074630 977.74 0.20384 695.00 0.0014388 -76.850 38.298 -0.35487 1.4092 1.9672 1969.6 -0.0074630 977.74 0.20384
-114.62 11923. undefined -75.440 42.842 -0.34594 695.00 0.0014388 -75.440 42.842 -0.34594 1.4114 1.9677 1971.8 -0.0074611 970.46 0.20416 695.00 0.0014388 -75.440 42.842 -0.34594 1.4114 1.9677 1971.8 -0.0074611 970.46 0.20416
-113.62 12238. undefined -74.027 47.378 -0.33706 695.00 0.0014388 -74.027 47.378 -0.33706 1.4136 1.9683 1974.0 -0.0074592 963.33 0.20447 695.00 0.0014388 -74.027 47.378 -0.33706 1.4136 1.9683 1974.0 -0.0074592 963.33 0.20447
-112.62 12552. undefined -72.612 51.908 -0.32822 695.00 0.0014388 -72.612 51.908 -0.32822 1.4158 1.9689 1976.2 -0.0074571 956.34 0.20479 695.00 0.0014388 -72.612 51.908 -0.32822 1.4158 1.9689 1976.2 -0.0074571 956.34 0.20479
-111.62 12865. undefined -71.196 56.431 -0.31942 695.00 0.0014388 -71.196 56.431 -0.31942 1.4180 1.9695 1978.4 -0.0074550 949.50 0.20510 695.00 0.0014388 -71.196 56.431 -0.31942 1.4180 1.9695 1978.4 -0.0074550 949.50 0.20510
-110.62 13177. undefined -69.776 60.947 -0.31066 695.00 0.0014388 -69.776 60.947 -0.31066 1.4203 1.9701 1980.5 -0.0074528 942.80 0.20542 695.00 0.0014388 -69.776 60.947 -0.31066 1.4203 1.9701 1980.5 -0.0074528 942.80 0.20542
-109.62 13488. undefined -68.355 65.457 -0.30194 695.00 0.0014388 -68.355 65.457 -0.30194 1.4225 1.9707 1982.7 -0.0074505 936.23 0.20574 695.00 0.0014388 -68.355 65.457 -0.30194 1.4225 1.9707 1982.7 -0.0074505 936.23 0.20574
-108.62 13799. undefined -66.931 69.961 -0.29326 695.00 0.0014388 -66.931 69.961 -0.29326 1.4248 1.9714 1984.8 -0.0074481 929.79 0.20605 695.00 0.0014388 -66.931 69.961 -0.29326 1.4248 1.9714 1984.8 -0.0074481 929.79 0.20605
-107.62 14108. undefined -65.505 74.458 -0.28462 695.00 0.0014388 -65.505 74.458 -0.28462 1.4270 1.9721 1986.9 -0.0074456 923.48 0.20637 695.00 0.0014388 -65.505 74.458 -0.28462 1.4270 1.9721 1986.9 -0.0074456 923.48 0.20637
-106.62 14417. undefined -64.077 78.949 -0.27602 695.00 0.0014388 -64.077 78.949 -0.27602 1.4293 1.9728 1989.0 -0.0074431 917.29 0.20669 695.00 0.0014388 -64.077 78.949 -0.27602 1.4293 1.9728 1989.0 -0.0074431 917.29 0.20669
-105.62 14725. undefined -62.647 83.434 -0.26746 695.00 0.0014388 -62.647 83.434 -0.26746 1.4316 1.9736 1991.1 -0.0074405 911.23 0.20700 695.00 0.0014388 -62.647 83.434 -0.26746 1.4316 1.9736 1991.1 -0.0074405 911.23 0.20700
-104.62 15032. undefined -61.214 87.913 -0.25893 695.00 0.0014388 -61.214 87.913 -0.25893 1.4339 1.9743 1993.2 -0.0074377 905.28 0.20732 695.00 0.0014388 -61.214 87.913 -0.25893 1.4339 1.9743 1993.2 -0.0074377 905.28 0.20732
