Temperature (C) Pressure (psia) Quality (l+v) Internal Energy (l+v, kJ/kg) Enthalpy (l+v, kJ/kg) Entropy (l+v, J/g*K) Density (l, kg/m3) Volume (l, m3/kg) Internal Energy (l, kJ/kg) Enthalpy (l, kJ/kg) Entropy (l, J/g*K) Cv (l, J/g*K) Cp (l, J/g*K) Sound Spd. (l, m/s) Joule-Thomson (l, F/psia) Viscosity (l, uPa*s) Therm. Cond. (l, W/m*K) Density (v, kg/m3) Volume (v, m3/kg) Internal Energy (v, kJ/kg) Enthalpy (v, kJ/kg) Entropy (v, J/g*K) Cv (v, J/g*K) Cp (v, J/g*K) Sound Spd. (v, m/s) Joule-Thomson (v, F/psia) Viscosity (v, uPa*s) Therm. Cond. (v, W/m*K)
-187.62 2.4953e-08 6.8864e-13 -196.64 -196.64 -1.3959 733.13 0.0013640 -196.64 -196.64 -1.3959 1.3553 1.9158 2136.4 -0.0077592 10960. 0.20792 1.0669e-08 9.3732e+07 350.13 366.26 5.1858 0.69067 0.87923 143.28 6.1051 2.3259 0.0017061
-186.62 3.7339e-08 9.8788e-13 -194.73 -194.73 -1.3736 732.08 0.0013660 -194.73 -194.73 -1.3736 1.3539 1.9166 2129.6 -0.0077546 10073. 0.20765 1.5780e-08 6.3371e+07 350.82 367.14 5.1200 0.69462 0.88317 144.03 5.9178 2.3534 0.0017533
-185.62 5.5322e-08 1.4019e-12 -192.81 -192.81 -1.3516 731.04 0.0013679 -192.81 -192.81 -1.3516 1.3525 1.9174 2122.9 -0.0077498 9276.1 0.20737 2.3112e-08 4.3267e+07 351.52 368.02 5.0561 0.69857 0.88713 144.77 5.7383 2.3808 0.0018007
-184.62 8.1182e-08 1.9686e-12 -190.89 -190.89 -1.3298 730.00 0.0013699 -190.89 -190.89 -1.3298 1.3513 1.9182 2116.1 -0.0077448 8557.8 0.20708 3.3533e-08 2.9821e+07 352.22 368.91 4.9939 0.70253 0.89108 145.51 5.5662 2.4083 0.0018485
-183.62 1.1803e-07 2.7360e-12 -188.97 -188.97 -1.3083 728.96 0.0013718 -188.97 -188.97 -1.3083 1.3501 1.9191 2109.3 -0.0077395 7909.8 0.20678 4.8211e-08 2.0742e+07 352.92 369.81 4.9333 0.70648 0.89504 146.24 5.4011 2.4357 0.0018965
-182.62 1.7009e-07 3.7647e-12 -187.05 -187.05 -1.2869 727.92 0.0013738 -187.05 -187.05 -1.2869 1.3490 1.9201 2102.5 -0.0077340 7324.3 0.20647 6.8704e-08 1.4555e+07 353.63 370.70 4.8744 0.71043 0.89899 146.97 5.2426 2.4632 0.0019448
-181.62 2.4299e-07 5.1293e-12 -185.13 -185.13 -1.2658 726.88 0.0013757 -185.13 -185.13 -1.2658 1.3480 1.9210 2095.7 -0.0077283 6794.5 0.20616 9.7079e-08 1.0301e+07 354.35 371.60 4.8170 0.71438 0.90294 147.69 5.0904 2.4906 0.0019934
-180.62 3.4425e-07 6.9212e-12 -183.21 -183.21 -1.2450 725.85 0.0013777 -183.21 -183.21 -1.2450 1.3470 1.9220 2088.9 -0.0077225 6314.4 0.20584 1.3605e-07 7.3504e+06 355.06 372.51 4.7612 0.71833 0.90688 148.41 4.9442 2.5181 0.0020423
-179.62 4.8378e-07 9.2509e-12 -181.29 -181.29 -1.2243 724.81 0.0013797 -181.29 -181.29 -1.2243 1.3461 1.9231 2082.0 -0.0077164 5878.8 0.20551 1.8915e-07 5.2868e+06 355.78 373.42 4.7068 0.72227 0.91082 149.13 4.8038 2.5456 0.0020915
-178.62 6.7459e-07 1.2249e-11 -179.37 -179.37 -1.2038 723.78 0.0013816 -179.37 -179.37 -1.2038 1.3453 1.9241 2075.2 -0.0077102 5482.9 0.20517 2.6096e-07 3.8320e+06 356.51 374.33 4.6538 0.72620 0.91475 149.84 4.6688 2.5731 0.0021410
-177.62 9.3358e-07 1.6070e-11 -177.44 -177.44 -1.1836 722.75 0.0013836 -177.44 -177.44 -1.1836 1.3445 1.9252 2068.4 -0.0077039 5122.6 0.20483 3.5737e-07 2.7982e+06 357.23 375.25 4.6022 0.73012 0.91867 150.54 4.5390 2.6005 0.0021907
-176.62 1.2826e-06 2.0889e-11 -175.52 -175.52 -1.1635 721.72 0.0013856 -175.52 -175.52 -1.1635 1.3437 1.9263 2061.5 -0.0076973 4794.1 0.20447 4.8588e-07 2.0581e+06 357.97 376.17 4.5519 0.73403 0.92258 151.25 4.4142 2.6280 0.0022408
-175.62 1.7496e-06 2.6905e-11 -173.59 -173.59 -1.1437 720.69 0.0013876 -173.59 -173.59 -1.1437 1.3430 1.9274 2054.7 -0.0076907 4494.3 0.20411 6.5601e-07 1.5244e+06 358.70 377.09 4.5029 0.73792 0.92648 151.95 4.2941 2.6555 0.0022912
-174.62 2.3705e-06 3.4338e-11 -171.66 -171.66 -1.1240 719.66 0.0013895 -171.66 -171.66 -1.1240 1.3423 1.9286 2047.9 -0.0076838 4220.2 0.20375 8.7976e-07 1.1367e+06 359.44 378.02 4.4551 0.74181 0.93036 152.64 4.1784 2.6830 0.0023418
-173.62 3.1903e-06 4.3422e-11 -169.73 -169.73 -1.1045 718.64 0.0013915 -169.73 -169.73 -1.1045 1.3417 1.9298 2041.0 -0.0076769 3969.3 0.20338 1.1721e-06 8.5314e+05 360.19 378.95 4.4085 0.74568 0.93423 153.33 4.0671 2.7105 0.0023928
-172.62 4.2661e-06 5.4400e-11 -167.80 -167.80 -1.0852 717.61 0.0013935 -167.80 -167.80 -1.0852 1.3411 1.9310 2034.2 -0.0076698 3739.3 0.20300 1.5518e-06 6.4441e+05 360.93 379.89 4.3631 0.74953 0.93809 154.02 3.9599 2.7379 0.0024440
-171.62 5.6692e-06 6.7510e-11 -165.87 -165.87 -1.0661 716.58 0.0013955 -165.87 -165.87 -1.0661 1.3405 1.9322 2027.3 -0.0076625 3528.0 0.20261 2.0419e-06 4.8974e+05 361.69 380.83 4.3188 0.75337 0.94193 154.71 3.8566 2.7654 0.0024955
-170.62 7.4884e-06 8.2970e-11 -163.94 -163.94 -1.0472 715.56 0.0013975 -163.94 -163.94 -1.0472 1.3400 1.9334 2020.5 -0.0076552 3333.8 0.20222 2.6708e-06 3.7442e+05 362.44 381.77 4.2755 0.75720 0.94575 155.39 3.7570 2.7929 0.0025473
-169.62 9.8334e-06 1.0095e-10 -162.00 -162.00 -1.0284 714.54 0.0013995 -162.00 -162.00 -1.0284 1.3395 1.9347 2013.6 -0.0076477 3154.9 0.20182 3.4733e-06 2.8791e+05 363.20 382.72 4.2334 0.76100 0.94956 156.07 3.6609 2.8204 0.0025994
-168.62 1.2839e-05 1.2155e-10 -160.07 -160.07 -1.0098 713.52 0.0014015 -160.07 -160.07 -1.0098 1.3390 1.9359 2006.8 -0.0076401 2989.9 0.20141 4.4917e-06 2.2263e+05 363.96 383.67 4.1922 0.76479 0.95335 156.74 3.5683 2.8479 0.0026518
-167.62 1.6672e-05 1.4473e-10 -158.13 -158.13 -0.99134 712.49 0.0014035 -158.13 -158.13 -0.99134 1.3386 1.9372 2000.0 -0.0076323 2837.5 0.20100 5.7771e-06 1.7310e+05 364.73 384.63 4.1521 0.76856 0.95712 157.41 3.4790 2.8754 0.0027045
-166.62 2.1533e-05 1.7029e-10 -156.19 -156.19 -0.97306 711.47 0.0014055 -156.19 -156.19 -0.97306 1.3382 1.9385 1993.1 -0.0076245 2696.5 0.20058 7.3914e-06 1.3529e+05 365.50 385.59 4.1129 0.77232 0.96087 158.08 3.3927 2.9029 0.0027575
-165.62 2.7666e-05 1.9778e-10 -154.25 -154.25 -0.95494 710.45 0.0014075 -154.25 -154.25 -0.95494 1.3378 1.9398 1986.3 -0.0076165 2566.0 0.20016 9.4084e-06 1.0629e+05 366.27 386.55 4.0746 0.77605 0.96460 158.75 3.3095 2.9304 0.0028108
-164.62 3.5367e-05 2.2642e-10 -152.31 -152.31 -0.93698 709.44 0.0014096 -152.31 -152.31 -0.93698 1.3375 1.9411 1979.4 -0.0076084 2444.9 0.19973 1.1916e-05 83918. 367.05 387.52 4.0372 0.77976 0.96832 159.41 3.2291 2.9579 0.0028643
-163.62 4.4989e-05 2.5498e-10 -150.37 -150.37 -0.91917 708.42 0.0014116 -150.37 -150.37 -0.91917 1.3371 1.9424 1972.6 -0.0076002 2332.3 0.19930 1.5020e-05 66577. 367.83 388.49 4.0008 0.78346 0.97201 160.07 3.1514 2.9854 0.0029182
-162.62 5.6956e-05 2.8163e-10 -148.43 -148.43 -0.90151 707.40 0.0014136 -148.43 -148.43 -0.90151 1.3368 1.9437 1965.8 -0.0075919 2227.7 0.19886 1.8844e-05 53068. 368.62 389.46 3.9651 0.78713 0.97569 160.72 3.0764 3.0129 0.0029723
-161.62 7.1773e-05 3.0384e-10 -146.48 -146.48 -0.88400 706.38 0.0014157 -146.48 -146.48 -0.88400 1.3365 1.9451 1959.0 -0.0075834 2130.2 0.19841 2.3533e-05 42494. 369.41 390.44 3.9304 0.79079 0.97935 161.38 3.0038 3.0404 0.0030268
-160.62 9.0036e-05 3.1812e-10 -144.54 -144.54 -0.86663 705.37 0.0014177 -144.54 -144.54 -0.86663 1.3363 1.9465 1952.1 -0.0075748 2039.2 0.19796 2.9258e-05 34178. 370.20 391.42 3.8964 0.79443 0.98298 162.03 2.9337 3.0679 0.0030815
-159.62 0.00011245 3.1981e-10 -142.59 -142.59 -0.84940 704.35 0.0014197 -142.59 -142.59 -0.84940 1.3360 1.9478 1945.3 -0.0075661 1954.2 0.19751 3.6221e-05 27609. 371.00 392.40 3.8632 0.79805 0.98660 162.68 2.8658 3.0955 0.0031365
-158.62 0.00013985 3.0280e-10 -140.64 -140.64 -0.83231 703.34 0.0014218 -140.64 -140.64 -0.83231 1.3358 1.9492 1938.5 -0.0075573 1874.8 0.19705 4.4652e-05 22395. 371.80 393.39 3.8307 0.80164 0.99020 163.32 2.8002 3.1230 0.0031918
-157.62 0.00017320 2.5922e-10 -138.69 -138.69 -0.81536 702.32 0.0014238 -138.69 -138.69 -0.81536 1.3356 1.9506 1931.7 -0.0075484 1800.3 0.19658 5.4822e-05 18241. 372.60 394.38 3.7990 0.80522 0.99378 163.96 2.7367 3.1505 0.0032474
-156.62 0.00021364 1.7904e-10 -136.74 -136.74 -0.79854 701.31 0.0014259 -136.74 -136.74 -0.79854 1.3354 1.9520 1924.9 -0.0075393 1730.5 0.19611 6.7040e-05 14916. 373.41 395.38 3.7680 0.80878 0.99734 164.60 2.6752 3.1780 0.0033033
-155.62 0.00026248 4.9642e-11 -134.79 -134.79 -0.78185 700.30 0.0014280 -134.79 -134.79 -0.78185 1.3352 1.9534 1918.1 -0.0075302 1664.9 0.19564 8.1666e-05 12245. 374.22 396.38 3.7377 0.81232 1.0009 165.24 2.6157 3.2055 0.0033595
-154.62 259.74 undefined -133.27 -130.71 -0.76899 700.00 0.0014286 -133.27 -130.71 -0.76899 1.3367 1.9538 1918.1 -0.0075276 1628.6 0.19572 700.00 0.0014286 -133.27 -130.71 -0.76899 1.3367 1.9538 1918.1 -0.0075276 1628.6 0.19572
-153.62 626.57 undefined -131.93 -125.76 -0.75775 700.00 0.0014286 -131.93 -125.76 -0.75775 1.3389 1.9537 1920.8 -0.0075277 1604.2 0.19604 700.00 0.0014286 -131.93 -125.76 -0.75775 1.3389 1.9537 1920.8 -0.0075277 1604.2 0.19604
-152.62 992.03 undefined -130.59 -120.82 -0.74659 700.00 0.0014286 -130.59 -120.82 -0.74659 1.3410 1.9536 1923.5 -0.0075277 1580.6 0.19636 700.00 0.0014286 -130.59 -120.82 -0.74659 1.3410 1.9536 1923.5 -0.0075277 1580.6 0.19636
-151.62 1356.1 undefined -129.25 -115.89 -0.73550 700.00 0.0014286 -129.25 -115.89 -0.73550 1.3432 1.9536 1926.3 -0.0075277 1557.8 0.19669 700.00 0.0014286 -129.25 -115.89 -0.73550 1.3432 1.9536 1926.3 -0.0075277 1557.8 0.19669
-150.62 1718.9 undefined -127.91 -110.98 -0.72448 700.00 0.0014286 -127.91 -110.98 -0.72448 1.3454 1.9536 1929.0 -0.0075275 1535.8 0.19701 700.00 0.0014286 -127.91 -110.98 -0.72448 1.3454 1.9536 1929.0 -0.0075275 1535.8 0.19701
-149.62 2080.3 undefined -126.56 -106.07 -0.71354 700.00 0.0014286 -126.56 -106.07 -0.71354 1.3475 1.9536 1931.7 -0.0075274 1514.5 0.19733 700.00 0.0014286 -126.56 -106.07 -0.71354 1.3475 1.9536 1931.7 -0.0075274 1514.5 0.19733
-148.62 2440.5 undefined -125.21 -101.17 -0.70266 700.00 0.0014286 -125.21 -101.17 -0.70266 1.3496 1.9536 1934.4 -0.0075271 1493.9 0.19765 700.00 0.0014286 -125.21 -101.17 -0.70266 1.3496 1.9536 1934.4 -0.0075271 1493.9 0.19765
-147.62 2799.3 undefined -123.86 -96.288 -0.69186 700.00 0.0014286 -123.86 -96.288 -0.69186 1.3518 1.9537 1937.1 -0.0075268 1473.9 0.19797 700.00 0.0014286 -123.86 -96.288 -0.69186 1.3518 1.9537 1937.1 -0.0075268 1473.9 0.19797
-146.62 3156.9 undefined -122.51 -91.413 -0.68113 700.00 0.0014286 -122.51 -91.413 -0.68113 1.3539 1.9537 1939.8 -0.0075264 1454.6 0.19829 700.00 0.0014286 -122.51 -91.413 -0.68113 1.3539 1.9537 1939.8 -0.0075264 1454.6 0.19829
-145.62 3513.3 undefined -121.15 -86.549 -0.67046 700.00 0.0014286 -121.15 -86.549 -0.67046 1.3560 1.9538 1942.4 -0.0075259 1435.9 0.19862 700.00 0.0014286 -121.15 -86.549 -0.67046 1.3560 1.9538 1942.4 -0.0075259 1435.9 0.19862
-144.62 3868.4 undefined -119.80 -81.694 -0.65986 700.00 0.0014286 -119.80 -81.694 -0.65986 1.3581 1.9539 1945.1 -0.0075254 1417.7 0.19894 700.00 0.0014286 -119.80 -81.694 -0.65986 1.3581 1.9539 1945.1 -0.0075254 1417.7 0.19894
-143.62 4222.2 undefined -118.44 -76.849 -0.64932 700.00 0.0014286 -118.44 -76.849 -0.64932 1.3603 1.9540 1947.8 -0.0075249 1400.2 0.19926 700.00 0.0014286 -118.44 -76.849 -0.64932 1.3603 1.9540 1947.8 -0.0075249 1400.2 0.19926
-142.62 4574.9 undefined -117.08 -72.015 -0.63885 700.00 0.0014286 -117.08 -72.015 -0.63885 1.3624 1.9542 1950.4 -0.0075242 1383.1 0.19959 700.00 0.0014286 -117.08 -72.015 -0.63885 1.3624 1.9542 1950.4 -0.0075242 1383.1 0.19959
-141.62 4926.3 undefined -115.71 -67.189 -0.62845 700.00 0.0014286 -115.71 -67.189 -0.62845 1.3645 1.9543 1953.0 -0.0075235 1366.5 0.19991 700.00 0.0014286 -115.71 -67.189 -0.62845 1.3645 1.9543 1953.0 -0.0075235 1366.5 0.19991
-140.62 5276.6 undefined -114.35 -62.374 -0.61811 700.00 0.0014286 -114.35 -62.374 -0.61811 1.3666 1.9545 1955.6 -0.0075227 1350.5 0.20023 700.00 0.0014286 -114.35 -62.374 -0.61811 1.3666 1.9545 1955.6 -0.0075227 1350.5 0.20023
-139.62 5625.7 undefined -112.98 -57.568 -0.60782 700.00 0.0014286 -112.98 -57.568 -0.60782 1.3687 1.9547 1958.2 -0.0075219 1334.9 0.20056 700.00 0.0014286 -112.98 -57.568 -0.60782 1.3687 1.9547 1958.2 -0.0075219 1334.9 0.20056
-138.62 5973.6 undefined -111.61 -52.771 -0.59760 700.00 0.0014286 -111.61 -52.771 -0.59760 1.3708 1.9549 1960.8 -0.0075210 1319.7 0.20088 700.00 0.0014286 -111.61 -52.771 -0.59760 1.3708 1.9549 1960.8 -0.0075210 1319.7 0.20088
-137.62 6320.4 undefined -110.24 -47.984 -0.58744 700.00 0.0014286 -110.24 -47.984 -0.58744 1.3728 1.9551 1963.3 -0.0075201 1304.9 0.20121 700.00 0.0014286 -110.24 -47.984 -0.58744 1.3728 1.9551 1963.3 -0.0075201 1304.9 0.20121
-136.62 6666.1 undefined -108.86 -43.205 -0.57734 700.00 0.0014286 -108.86 -43.205 -0.57734 1.3749 1.9553 1965.9 -0.0075191 1290.6 0.20153 700.00 0.0014286 -108.86 -43.205 -0.57734 1.3749 1.9553 1965.9 -0.0075191 1290.6 0.20153
-135.62 7010.6 undefined -107.49 -38.436 -0.56730 700.00 0.0014286 -107.49 -38.436 -0.56730 1.3770 1.9555 1968.4 -0.0075180 1276.7 0.20186 700.00 0.0014286 -107.49 -38.436 -0.56730 1.3770 1.9555 1968.4 -0.0075180 1276.7 0.20186
-134.62 7354.0 undefined -106.11 -33.676 -0.55732 700.00 0.0014286 -106.11 -33.676 -0.55732 1.3791 1.9558 1970.9 -0.0075169 1263.1 0.20218 700.00 0.0014286 -106.11 -33.676 -0.55732 1.3791 1.9558 1970.9 -0.0075169 1263.1 0.20218
-133.62 7696.2 undefined -104.73 -28.924 -0.54739 700.00 0.0014286 -104.73 -28.924 -0.54739 1.3812 1.9561 1973.4 -0.0075157 1249.9 0.20251 700.00 0.0014286 -104.73 -28.924 -0.54739 1.3812 1.9561 1973.4 -0.0075157 1249.9 0.20251
-132.62 8037.4 undefined -103.35 -24.181 -0.53752 700.00 0.0014286 -103.35 -24.181 -0.53752 1.3833 1.9564 1975.9 -0.0075144 1237.0 0.20283 700.00 0.0014286 -103.35 -24.181 -0.53752 1.3833 1.9564 1975.9 -0.0075144 1237.0 0.20283
-131.62 8377.5 undefined -101.96 -19.447 -0.52770 700.00 0.0014286 -101.96 -19.447 -0.52770 1.3854 1.9567 1978.3 -0.0075131 1224.5 0.20316 700.00 0.0014286 -101.96 -19.447 -0.52770 1.3854 1.9567 1978.3 -0.0075131 1224.5 0.20316
-130.62 8716.6 undefined -100.58 -14.721 -0.51794 700.00 0.0014286 -100.58 -14.721 -0.51794 1.3875 1.9570 1980.8 -0.0075117 1212.3 0.20349 700.00 0.0014286 -100.58 -14.721 -0.51794 1.3875 1.9570 1980.8 -0.0075117 1212.3 0.20349
-129.62 9054.5 undefined -99.188 -10.004 -0.50823 700.00 0.0014286 -99.188 -10.004 -0.50823 1.3896 1.9574 1983.2 -0.0075103 1200.4 0.20381 700.00 0.0014286 -99.188 -10.004 -0.50823 1.3896 1.9574 1983.2 -0.0075103 1200.4 0.20381
-128.62 9391.4 undefined -97.797 -5.2950 -0.49858 700.00 0.0014286 -97.797 -5.2950 -0.49858 1.3917 1.9578 1985.6 -0.0075088 1188.8 0.20414 700.00 0.0014286 -97.797 -5.2950 -0.49858 1.3917 1.9578 1985.6 -0.0075088 1188.8 0.20414
-127.62 9727.3 undefined -96.404 -0.59417 -0.48897 700.00 0.0014286 -96.404 -0.59417 -0.48897 1.3938 1.9581 1988.0 -0.0075072 1177.5 0.20447 700.00 0.0014286 -96.404 -0.59417 -0.48897 1.3938 1.9581 1988.0 -0.0075072 1177.5 0.20447
-126.62 10062. undefined -95.009 4.0985 -0.47942 700.00 0.0014286 -95.009 4.0985 -0.47942 1.3959 1.9585 1990.4 -0.0075056 1166.5 0.20480 700.00 0.0014286 -95.009 4.0985 -0.47942 1.3959 1.9585 1990.4 -0.0075056 1166.5 0.20480
-125.62 10396. undefined -93.612 8.7831 -0.46992 700.00 0.0014286 -93.612 8.7831 -0.46992 1.3981 1.9590 1992.7 -0.0075039 1155.8 0.20513 700.00 0.0014286 -93.612 8.7831 -0.46992 1.3981 1.9590 1992.7 -0.0075039 1155.8 0.20513
-124.62 10729. undefined -92.213 13.460 -0.46047 700.00 0.0014286 -92.213 13.460 -0.46047 1.4002 1.9594 1995.1 -0.0075021 1145.3 0.20545 700.00 0.0014286 -92.213 13.460 -0.46047 1.4002 1.9594 1995.1 -0.0075021 1145.3 0.20545
-123.62 11060. undefined -90.812 18.129 -0.45106 700.00 0.0014286 -90.812 18.129 -0.45106 1.4023 1.9599 1997.4 -0.0075003 1135.0 0.20578 700.00 0.0014286 -90.812 18.129 -0.45106 1.4023 1.9599 1997.4 -0.0075003 1135.0 0.20578
-122.62 11391. undefined -89.409 22.790 -0.44171 700.00 0.0014286 -89.409 22.790 -0.44171 1.4044 1.9603 1999.7 -0.0074984 1125.0 0.20611 700.00 0.0014286 -89.409 22.790 -0.44171 1.4044 1.9603 1999.7 -0.0074984 1125.0 0.20611
-121.62 11721. undefined -88.003 27.443 -0.43240 700.00 0.0014286 -88.003 27.443 -0.43240 1.4066 1.9608 2002.0 -0.0074964 1115.2 0.20644 700.00 0.0014286 -88.003 27.443 -0.43240 1.4066 1.9608 2002.0 -0.0074964 1115.2 0.20644
-120.62 12050. undefined -86.596 32.089 -0.42314 700.00 0.0014286 -86.596 32.089 -0.42314 1.4087 1.9613 2004.3 -0.0074944 1105.7 0.20677 700.00 0.0014286 -86.596 32.089 -0.42314 1.4087 1.9613 2004.3 -0.0074944 1105.7 0.20677
-119.62 12377. undefined -85.186 36.727 -0.41393 700.00 0.0014286 -85.186 36.727 -0.41393 1.4109 1.9619 2006.5 -0.0074923 1096.4 0.20710 700.00 0.0014286 -85.186 36.727 -0.41393 1.4109 1.9619 2006.5 -0.0074923 1096.4 0.20710
-118.62 12704. undefined -83.774 41.358 -0.40476 700.00 0.0014286 -83.774 41.358 -0.40476 1.4130 1.9624 2008.8 -0.0074901 1087.2 0.20743 700.00 0.0014286 -83.774 41.358 -0.40476 1.4130 1.9624 2008.8 -0.0074901 1087.2 0.20743
-117.62 13030. undefined -82.360 45.981 -0.39564 700.00 0.0014286 -82.360 45.981 -0.39564 1.4152 1.9630 2011.0 -0.0074878 1078.3 0.20776 700.00 0.0014286 -82.360 45.981 -0.39564 1.4152 1.9630 2011.0 -0.0074878 1078.3 0.20776
-116.62 13355. undefined -80.943 50.597 -0.38656 700.00 0.0014286 -80.943 50.597 -0.38656 1.4174 1.9636 2013.2 -0.0074855 1069.6 0.20809 700.00 0.0014286 -80.943 50.597 -0.38656 1.4174 1.9636 2013.2 -0.0074855 1069.6 0.20809
-115.62 13679. undefined -79.525 55.206 -0.37753 700.00 0.0014286 -79.525 55.206 -0.37753 1.4195 1.9642 2015.4 -0.0074831 1061.1 0.20843 700.00 0.0014286 -79.525 55.206 -0.37753 1.4195 1.9642 2015.4 -0.0074831 1061.1 0.20843
-114.62 14002. undefined -78.104 59.808 -0.36854 700.00 0.0014286 -78.104 59.808 -0.36854 1.4217 1.9648 2017.6 -0.0074807 1052.8 0.20876 700.00 0.0014286 -78.104 59.808 -0.36854 1.4217 1.9648 2017.6 -0.0074807 1052.8 0.20876
-113.62 14324. undefined -76.682 64.403 -0.35959 700.00 0.0014286 -76.682 64.403 -0.35959 1.4239 1.9655 2019.7 -0.0074781 1044.6 0.20909 700.00 0.0014286 -76.682 64.403 -0.35959 1.4239 1.9655 2019.7 -0.0074781 1044.6 0.20909
-112.62 14645. undefined -75.257 68.991 -0.35069 700.00 0.0014286 -75.257 68.991 -0.35069 1.4261 1.9661 2021.9 -0.0074755 1036.6 0.20942 700.00 0.0014286 -75.257 68.991 -0.35069 1.4261 1.9661 2021.9 -0.0074755 1036.6 0.20942
-111.62 14965. undefined -73.829 73.572 -0.34183 700.00 0.0014286 -73.829 73.572 -0.34183 1.4283 1.9668 2024.0 -0.0074728 1028.8 0.20975 700.00 0.0014286 -73.829 73.572 -0.34183 1.4283 1.9668 2024.0 -0.0074728 1028.8 0.20975
-110.62 15284. undefined -72.400 78.147 -0.33300 700.00 0.0014286 -72.400 78.147 -0.33300 1.4306 1.9675 2026.1 -0.0074701 1021.1 0.21009 700.00 0.0014286 -72.400 78.147 -0.33300 1.4306 1.9675 2026.1 -0.0074701 1021.1 0.21009
-109.62 15603. undefined -70.968 82.714 -0.32422 700.00 0.0014286 -70.968 82.714 -0.32422 1.4328 1.9683 2028.2 -0.0074672 1013.7 0.21042 700.00 0.0014286 -70.968 82.714 -0.32422 1.4328 1.9683 2028.2 -0.0074672 1013.7 0.21042
-108.62 15920. undefined -69.534 87.275 -0.31548 700.00 0.0014286 -69.534 87.275 -0.31548 1.4350 1.9690 2030.3 -0.0074643 1006.3 0.21075 700.00 0.0014286 -69.534 87.275 -0.31548 1.4350 1.9690 2030.3 -0.0074643 1006.3 0.21075
-107.62 16237. undefined -68.098 91.829 -0.30678 700.00 0.0014286 -68.098 91.829 -0.30678 1.4373 1.9698 2032.4 -0.0074613 999.12 0.21109 700.00 0.0014286 -68.098 91.829 -0.30678 1.4373 1.9698 2032.4 -0.0074613 999.12 0.21109
-106.62 16553. undefined -66.660 96.377 -0.29811 700.00 0.0014286 -66.660 96.377 -0.29811 1.4396 1.9706 2034.4 -0.0074583 992.08 0.21142 700.00 0.0014286 -66.660 96.377 -0.29811 1.4396 1.9706 2034.4 -0.0074583 992.08 0.21142
-105.62 16867. undefined -65.219 100.92 -0.28949 700.00 0.0014286 -65.219 100.92 -0.28949 1.4418 1.9714 2036.5 -0.0074551 985.18 0.21175 700.00 0.0014286 -65.219 100.92 -0.28949 1.4418 1.9714 2036.5 -0.0074551 985.18 0.21175
-104.62 17181. undefined -63.776 105.45 -0.28090 700.00 0.0014286 -63.776 105.45 -0.28090 1.4441 1.9723 2038.5 -0.0074519 978.41 0.21209 700.00 0.0014286 -63.776 105.45 -0.28090 1.4441 1.9723 2038.5 -0.0074519 978.41 0.21209
-103.62 17494. undefined -62.331 109.98 -0.27235 700.00 0.0014286 -62.331 109.98 -0.27235 1.4464 1.9731 2040.5 -0.0074486 971.78 0.21242 700.00 0.0014286 -62.331 109.98 -0.27235 1.4464 1.9731 2040.5 -0.0074486 971.78 0.21242
