Temperature (C) Pressure (psia) Quality (l+v) Internal Energy (l+v, kJ/kg) Enthalpy (l+v, kJ/kg) Entropy (l+v, J/g*K) Density (l, kg/m3) Volume (l, m3/kg) Internal Energy (l, kJ/kg) Enthalpy (l, kJ/kg) Entropy (l, J/g*K) Cv (l, J/g*K) Cp (l, J/g*K) Sound Spd. (l, m/s) Joule-Thomson (l, F/psia) Viscosity (l, uPa*s) Therm. Cond. (l, W/m*K) Density (v, kg/m3) Volume (v, m3/kg) Internal Energy (v, kJ/kg) Enthalpy (v, kJ/kg) Entropy (v, J/g*K) Cv (v, J/g*K) Cp (v, J/g*K) Sound Spd. (v, m/s) Joule-Thomson (v, F/psia) Viscosity (v, uPa*s) Therm. Cond. (v, W/m*K)
-187.62 2.4953e-08 5.8055e-13 -196.64 -196.64 -1.3959 733.13 0.0013640 -196.64 -196.64 -1.3959 1.3553 1.9158 2136.4 -0.0077592 10960. 0.20792 1.0669e-08 9.3732e+07 350.13 366.26 5.1858 0.69067 0.87923 143.28 6.1051 2.3259 0.0017061
-186.62 3.7339e-08 8.2800e-13 -194.73 -194.73 -1.3736 732.08 0.0013660 -194.73 -194.73 -1.3736 1.3539 1.9166 2129.6 -0.0077546 10073. 0.20765 1.5780e-08 6.3371e+07 350.82 367.14 5.1200 0.69462 0.88317 144.03 5.9178 2.3534 0.0017533
-185.62 5.5322e-08 1.1677e-12 -192.81 -192.81 -1.3516 731.04 0.0013679 -192.81 -192.81 -1.3516 1.3525 1.9174 2122.9 -0.0077498 9276.1 0.20737 2.3112e-08 4.3267e+07 351.52 368.02 5.0561 0.69857 0.88713 144.77 5.7383 2.3808 0.0018007
-184.62 8.1182e-08 1.6288e-12 -190.89 -190.89 -1.3298 730.00 0.0013699 -190.89 -190.89 -1.3298 1.3513 1.9182 2116.1 -0.0077448 8557.8 0.20708 3.3533e-08 2.9821e+07 352.22 368.91 4.9939 0.70253 0.89108 145.51 5.5662 2.4083 0.0018485
-183.62 1.1803e-07 2.2476e-12 -188.97 -188.97 -1.3083 728.96 0.0013718 -188.97 -188.97 -1.3083 1.3501 1.9191 2109.3 -0.0077395 7909.8 0.20678 4.8211e-08 2.0742e+07 352.92 369.81 4.9333 0.70648 0.89504 146.24 5.4011 2.4357 0.0018965
-182.62 1.7009e-07 3.0686e-12 -187.05 -187.05 -1.2869 727.92 0.0013738 -187.05 -187.05 -1.2869 1.3490 1.9201 2102.5 -0.0077340 7324.3 0.20647 6.8704e-08 1.4555e+07 353.63 370.70 4.8744 0.71043 0.89899 146.97 5.2426 2.4632 0.0019448
-181.62 2.4299e-07 4.1457e-12 -185.13 -185.13 -1.2658 726.88 0.0013757 -185.13 -185.13 -1.2658 1.3480 1.9210 2095.7 -0.0077283 6794.5 0.20616 9.7079e-08 1.0301e+07 354.35 371.60 4.8170 0.71438 0.90294 147.69 5.0904 2.4906 0.0019934
-180.62 3.4425e-07 5.5428e-12 -183.21 -183.21 -1.2450 725.85 0.0013777 -183.21 -183.21 -1.2450 1.3470 1.9220 2088.9 -0.0077225 6314.4 0.20584 1.3605e-07 7.3504e+06 355.06 372.51 4.7612 0.71833 0.90688 148.41 4.9442 2.5181 0.0020423
-179.62 4.8378e-07 7.3345e-12 -181.29 -181.29 -1.2243 724.81 0.0013797 -181.29 -181.29 -1.2243 1.3461 1.9231 2082.0 -0.0077164 5878.8 0.20551 1.8915e-07 5.2868e+06 355.78 373.42 4.7068 0.72227 0.91082 149.13 4.8038 2.5456 0.0020915
-178.62 6.7459e-07 9.6054e-12 -179.37 -179.37 -1.2038 723.78 0.0013816 -179.37 -179.37 -1.2038 1.3453 1.9241 2075.2 -0.0077102 5482.9 0.20517 2.6096e-07 3.8320e+06 356.51 374.33 4.6538 0.72620 0.91475 149.84 4.6688 2.5731 0.0021410
-177.62 9.3358e-07 1.2449e-11 -177.44 -177.44 -1.1836 722.75 0.0013836 -177.44 -177.44 -1.1836 1.3445 1.9252 2068.4 -0.0077039 5122.6 0.20483 3.5737e-07 2.7982e+06 357.23 375.25 4.6022 0.73012 0.91867 150.54 4.5390 2.6005 0.0021907
-176.62 1.2826e-06 1.5966e-11 -175.52 -175.52 -1.1635 721.72 0.0013856 -175.52 -175.52 -1.1635 1.3437 1.9263 2061.5 -0.0076973 4794.1 0.20447 4.8588e-07 2.0581e+06 357.97 376.17 4.5519 0.73403 0.92258 151.25 4.4142 2.6280 0.0022408
-175.62 1.7496e-06 2.0259e-11 -173.59 -173.59 -1.1437 720.69 0.0013876 -173.59 -173.59 -1.1437 1.3430 1.9274 2054.7 -0.0076907 4494.3 0.20411 6.5601e-07 1.5244e+06 358.70 377.09 4.5029 0.73792 0.92648 151.95 4.2941 2.6555 0.0022912
-174.62 2.3705e-06 2.5424e-11 -171.66 -171.66 -1.1240 719.66 0.0013895 -171.66 -171.66 -1.1240 1.3423 1.9286 2047.9 -0.0076838 4220.2 0.20375 8.7976e-07 1.1367e+06 359.44 378.02 4.4551 0.74181 0.93036 152.64 4.1784 2.6830 0.0023418
-173.62 3.1903e-06 3.1546e-11 -169.73 -169.73 -1.1045 718.64 0.0013915 -169.73 -169.73 -1.1045 1.3417 1.9298 2041.0 -0.0076769 3969.3 0.20338 1.1721e-06 8.5314e+05 360.19 378.95 4.4085 0.74568 0.93423 153.33 4.0671 2.7105 0.0023928
-172.62 4.2661e-06 3.8677e-11 -167.80 -167.80 -1.0852 717.61 0.0013935 -167.80 -167.80 -1.0852 1.3411 1.9310 2034.2 -0.0076698 3739.3 0.20300 1.5518e-06 6.4441e+05 360.93 379.89 4.3631 0.74953 0.93809 154.02 3.9599 2.7379 0.0024440
-171.62 5.6692e-06 4.6822e-11 -165.87 -165.87 -1.0661 716.58 0.0013955 -165.87 -165.87 -1.0661 1.3405 1.9322 2027.3 -0.0076625 3528.0 0.20261 2.0419e-06 4.8974e+05 361.69 380.83 4.3188 0.75337 0.94193 154.71 3.8566 2.7654 0.0024955
-170.62 7.4884e-06 5.5910e-11 -163.94 -163.94 -1.0472 715.56 0.0013975 -163.94 -163.94 -1.0472 1.3400 1.9334 2020.5 -0.0076552 3333.8 0.20222 2.6708e-06 3.7442e+05 362.44 381.77 4.2755 0.75720 0.94575 155.39 3.7570 2.7929 0.0025473
-169.62 9.8334e-06 6.5761e-11 -162.00 -162.00 -1.0284 714.54 0.0013995 -162.00 -162.00 -1.0284 1.3395 1.9347 2013.6 -0.0076477 3154.9 0.20182 3.4733e-06 2.8791e+05 363.20 382.72 4.2334 0.76100 0.94956 156.07 3.6609 2.8204 0.0025994
-168.62 1.2839e-05 7.6038e-11 -160.07 -160.07 -1.0098 713.52 0.0014015 -160.07 -160.07 -1.0098 1.3390 1.9359 2006.8 -0.0076401 2989.9 0.20141 4.4917e-06 2.2263e+05 363.96 383.67 4.1922 0.76479 0.95335 156.74 3.5683 2.8479 0.0026518
-167.62 1.6672e-05 8.6195e-11 -158.13 -158.13 -0.99134 712.49 0.0014035 -158.13 -158.13 -0.99134 1.3386 1.9372 2000.0 -0.0076323 2837.5 0.20100 5.7771e-06 1.7310e+05 364.73 384.63 4.1521 0.76856 0.95712 157.41 3.4790 2.8754 0.0027045
-166.62 2.1533e-05 9.5403e-11 -156.19 -156.19 -0.97306 711.47 0.0014055 -156.19 -156.19 -0.97306 1.3382 1.9385 1993.1 -0.0076245 2696.5 0.20058 7.3914e-06 1.3529e+05 365.50 385.59 4.1129 0.77232 0.96087 158.08 3.3927 2.9029 0.0027575
-165.62 2.7666e-05 1.0246e-10 -154.25 -154.25 -0.95494 710.45 0.0014075 -154.25 -154.25 -0.95494 1.3378 1.9398 1986.3 -0.0076165 2566.0 0.20016 9.4084e-06 1.0629e+05 366.27 386.55 4.0746 0.77605 0.96460 158.75 3.3095 2.9304 0.0028108
-164.62 3.5367e-05 1.0569e-10 -152.31 -152.31 -0.93698 709.44 0.0014096 -152.31 -152.31 -0.93698 1.3375 1.9411 1979.4 -0.0076084 2444.9 0.19973 1.1916e-05 83918. 367.05 387.52 4.0372 0.77976 0.96832 159.41 3.2291 2.9579 0.0028643
-163.62 4.4989e-05 1.0280e-10 -150.37 -150.37 -0.91917 708.42 0.0014116 -150.37 -150.37 -0.91917 1.3371 1.9424 1972.6 -0.0076002 2332.3 0.19930 1.5020e-05 66577. 367.83 388.49 4.0008 0.78346 0.97201 160.07 3.1514 2.9854 0.0029182
-162.62 5.6956e-05 9.0716e-11 -148.43 -148.43 -0.90151 707.40 0.0014136 -148.43 -148.43 -0.90151 1.3368 1.9437 1965.8 -0.0075919 2227.7 0.19886 1.8844e-05 53068. 368.62 389.46 3.9651 0.78713 0.97569 160.72 3.0764 3.0129 0.0029723
-161.62 7.1773e-05 6.5419e-11 -146.48 -146.48 -0.88400 706.38 0.0014157 -146.48 -146.48 -0.88400 1.3365 1.9451 1959.0 -0.0075834 2130.2 0.19841 2.3533e-05 42494. 369.41 390.44 3.9304 0.79079 0.97935 161.38 3.0038 3.0404 0.0030268
-160.62 9.0036e-05 2.1685e-11 -144.54 -144.54 -0.86663 705.37 0.0014177 -144.54 -144.54 -0.86663 1.3363 1.9465 1952.1 -0.0075748 2039.2 0.19796 2.9258e-05 34178. 370.20 391.42 3.8964 0.79443 0.98298 162.03 2.9337 3.0679 0.0030815
-159.62 244.41 undefined -142.98 -140.59 -0.85284 705.00 0.0014184 -142.98 -140.59 -0.85284 1.3375 1.9469 1951.4 -0.0075714 1984.3 0.19801 705.00 0.0014184 -142.98 -140.59 -0.85284 1.3375 1.9469 1951.4 -0.0075714 1984.3 0.19801
-158.62 626.84 undefined -141.64 -135.51 -0.84110 705.00 0.0014184 -141.64 -135.51 -0.84110 1.3397 1.9469 1954.2 -0.0075708 1948.6 0.19835 705.00 0.0014184 -141.64 -135.51 -0.84110 1.3397 1.9469 1954.2 -0.0075708 1948.6 0.19835
-157.62 1007.8 undefined -140.30 -130.44 -0.82944 705.00 0.0014184 -140.30 -130.44 -0.82944 1.3419 1.9470 1957.0 -0.0075702 1914.4 0.19869 705.00 0.0014184 -140.30 -130.44 -0.82944 1.3419 1.9470 1957.0 -0.0075702 1914.4 0.19869
-156.62 1387.2 undefined -138.96 -125.39 -0.81786 705.00 0.0014184 -138.96 -125.39 -0.81786 1.3440 1.9470 1959.8 -0.0075696 1881.5 0.19902 705.00 0.0014184 -138.96 -125.39 -0.81786 1.3440 1.9470 1959.8 -0.0075696 1881.5 0.19902
-155.62 1765.3 undefined -137.61 -120.35 -0.80637 705.00 0.0014184 -137.61 -120.35 -0.80637 1.3462 1.9471 1962.5 -0.0075688 1849.9 0.19936 705.00 0.0014184 -137.61 -120.35 -0.80637 1.3462 1.9471 1962.5 -0.0075688 1849.9 0.19936
-154.62 2141.8 undefined -136.27 -115.32 -0.79496 705.00 0.0014184 -136.27 -115.32 -0.79496 1.3483 1.9471 1965.3 -0.0075680 1819.4 0.19970 705.00 0.0014184 -136.27 -115.32 -0.79496 1.3483 1.9471 1965.3 -0.0075680 1819.4 0.19970
-153.62 2517.0 undefined -134.92 -110.30 -0.78362 705.00 0.0014184 -134.92 -110.30 -0.78362 1.3504 1.9472 1968.0 -0.0075672 1790.0 0.20004 705.00 0.0014184 -134.92 -110.30 -0.78362 1.3504 1.9472 1968.0 -0.0075672 1790.0 0.20004
-152.62 2890.8 undefined -133.56 -105.29 -0.77236 705.00 0.0014184 -133.56 -105.29 -0.77236 1.3525 1.9473 1970.8 -0.0075662 1761.8 0.20037 705.00 0.0014184 -133.56 -105.29 -0.77236 1.3525 1.9473 1970.8 -0.0075662 1761.8 0.20037
-151.62 3263.2 undefined -132.21 -100.30 -0.76117 705.00 0.0014184 -132.21 -100.30 -0.76117 1.3546 1.9475 1973.5 -0.0075653 1734.5 0.20071 705.00 0.0014184 -132.21 -100.30 -0.76117 1.3546 1.9475 1973.5 -0.0075653 1734.5 0.20071
-150.62 3634.2 undefined -130.86 -95.313 -0.75006 705.00 0.0014184 -130.86 -95.313 -0.75006 1.3567 1.9476 1976.2 -0.0075642 1708.2 0.20105 705.00 0.0014184 -130.86 -95.313 -0.75006 1.3567 1.9476 1976.2 -0.0075642 1708.2 0.20105
-149.62 4003.9 undefined -129.50 -90.340 -0.73903 705.00 0.0014184 -129.50 -90.340 -0.73903 1.3588 1.9478 1978.9 -0.0075631 1682.8 0.20139 705.00 0.0014184 -129.50 -90.340 -0.73903 1.3588 1.9478 1978.9 -0.0075631 1682.8 0.20139
-148.62 4372.3 undefined -128.14 -85.377 -0.72806 705.00 0.0014184 -128.14 -85.377 -0.72806 1.3609 1.9479 1981.6 -0.0075620 1658.3 0.20173 705.00 0.0014184 -128.14 -85.377 -0.72806 1.3609 1.9479 1981.6 -0.0075620 1658.3 0.20173
-147.62 4739.4 undefined -126.78 -80.425 -0.71717 705.00 0.0014184 -126.78 -80.425 -0.71717 1.3630 1.9481 1984.3 -0.0075608 1634.5 0.20207 705.00 0.0014184 -126.78 -80.425 -0.71717 1.3630 1.9481 1984.3 -0.0075608 1634.5 0.20207
-146.62 5105.1 undefined -125.41 -75.484 -0.70634 705.00 0.0014184 -125.41 -75.484 -0.70634 1.3651 1.9483 1987.0 -0.0075596 1611.6 0.20241 705.00 0.0014184 -125.41 -75.484 -0.70634 1.3651 1.9483 1987.0 -0.0075596 1611.6 0.20241
-145.62 5469.6 undefined -124.05 -70.553 -0.69559 705.00 0.0014184 -124.05 -70.553 -0.69559 1.3672 1.9485 1989.6 -0.0075583 1589.5 0.20275 705.00 0.0014184 -124.05 -70.553 -0.69559 1.3672 1.9485 1989.6 -0.0075583 1589.5 0.20275
-144.62 5832.8 undefined -122.68 -65.633 -0.68490 705.00 0.0014184 -122.68 -65.633 -0.68490 1.3693 1.9488 1992.3 -0.0075570 1568.0 0.20309 705.00 0.0014184 -122.68 -65.633 -0.68490 1.3693 1.9488 1992.3 -0.0075570 1568.0 0.20309
-143.62 6194.8 undefined -121.31 -60.723 -0.67428 705.00 0.0014184 -121.31 -60.723 -0.67428 1.3714 1.9490 1994.9 -0.0075556 1547.2 0.20343 705.00 0.0014184 -121.31 -60.723 -0.67428 1.3714 1.9490 1994.9 -0.0075556 1547.2 0.20343
-142.62 6555.5 undefined -119.93 -55.823 -0.66373 705.00 0.0014184 -119.93 -55.823 -0.66373 1.3734 1.9493 1997.5 -0.0075542 1527.1 0.20377 705.00 0.0014184 -119.93 -55.823 -0.66373 1.3734 1.9493 1997.5 -0.0075542 1527.1 0.20377
-141.62 6915.0 undefined -118.56 -50.932 -0.65324 705.00 0.0014184 -118.56 -50.932 -0.65324 1.3755 1.9496 2000.1 -0.0075527 1507.6 0.20411 705.00 0.0014184 -118.56 -50.932 -0.65324 1.3755 1.9496 2000.1 -0.0075527 1507.6 0.20411
-140.62 7273.3 undefined -117.18 -46.052 -0.64281 705.00 0.0014184 -117.18 -46.052 -0.64281 1.3776 1.9498 2002.6 -0.0075512 1488.7 0.20445 705.00 0.0014184 -117.18 -46.052 -0.64281 1.3776 1.9498 2002.6 -0.0075512 1488.7 0.20445
-139.62 7630.4 undefined -115.80 -41.181 -0.63245 705.00 0.0014184 -115.80 -41.181 -0.63245 1.3796 1.9502 2005.2 -0.0075496 1470.4 0.20479 705.00 0.0014184 -115.80 -41.181 -0.63245 1.3796 1.9502 2005.2 -0.0075496 1470.4 0.20479
-138.62 7986.2 undefined -114.42 -36.320 -0.62215 705.00 0.0014184 -114.42 -36.320 -0.62215 1.3817 1.9505 2007.7 -0.0075480 1452.6 0.20514 705.00 0.0014184 -114.42 -36.320 -0.62215 1.3817 1.9505 2007.7 -0.0075480 1452.6 0.20514
-137.62 8340.9 undefined -113.04 -31.468 -0.61190 705.00 0.0014184 -113.04 -31.468 -0.61190 1.3838 1.9508 2010.3 -0.0075463 1435.3 0.20548 705.00 0.0014184 -113.04 -31.468 -0.61190 1.3838 1.9508 2010.3 -0.0075463 1435.3 0.20548
-136.62 8694.5 undefined -111.66 -26.626 -0.60172 705.00 0.0014184 -111.66 -26.626 -0.60172 1.3858 1.9512 2012.8 -0.0075446 1418.5 0.20582 705.00 0.0014184 -111.66 -26.626 -0.60172 1.3858 1.9512 2012.8 -0.0075446 1418.5 0.20582
-135.62 9046.8 undefined -110.27 -21.793 -0.59160 705.00 0.0014184 -110.27 -21.793 -0.59160 1.3879 1.9515 2015.3 -0.0075428 1402.2 0.20616 705.00 0.0014184 -110.27 -21.793 -0.59160 1.3879 1.9515 2015.3 -0.0075428 1402.2 0.20616
-134.62 9398.1 undefined -108.88 -16.969 -0.58154 705.00 0.0014184 -108.88 -16.969 -0.58154 1.3900 1.9519 2017.7 -0.0075410 1386.4 0.20651 705.00 0.0014184 -108.88 -16.969 -0.58154 1.3900 1.9519 2017.7 -0.0075410 1386.4 0.20651
-133.62 9748.2 undefined -107.49 -12.155 -0.57153 705.00 0.0014184 -107.49 -12.155 -0.57153 1.3921 1.9523 2020.2 -0.0075391 1371.0 0.20685 705.00 0.0014184 -107.49 -12.155 -0.57153 1.3921 1.9523 2020.2 -0.0075391 1371.0 0.20685
-132.62 10097. undefined -106.10 -7.3488 -0.56158 705.00 0.0014184 -106.10 -7.3488 -0.56158 1.3941 1.9527 2022.6 -0.0075372 1356.1 0.20719 705.00 0.0014184 -106.10 -7.3488 -0.56158 1.3941 1.9527 2022.6 -0.0075372 1356.1 0.20719
-131.62 10445. undefined -104.70 -2.5518 -0.55169 705.00 0.0014184 -104.70 -2.5518 -0.55169 1.3962 1.9531 2025.0 -0.0075352 1341.5 0.20754 705.00 0.0014184 -104.70 -2.5518 -0.55169 1.3962 1.9531 2025.0 -0.0075352 1341.5 0.20754
-130.62 10792. undefined -103.30 2.2364 -0.54185 705.00 0.0014184 -103.30 2.2364 -0.54185 1.3983 1.9536 2027.4 -0.0075332 1327.3 0.20788 705.00 0.0014184 -103.30 2.2364 -0.54185 1.3983 1.9536 2027.4 -0.0075332 1327.3 0.20788
-129.62 11137. undefined -101.90 7.0160 -0.53207 705.00 0.0014184 -101.90 7.0160 -0.53207 1.4004 1.9540 2029.8 -0.0075311 1313.5 0.20823 705.00 0.0014184 -101.90 7.0160 -0.53207 1.4004 1.9540 2029.8 -0.0075311 1313.5 0.20823
-128.62 11482. undefined -100.50 11.787 -0.52234 705.00 0.0014184 -100.50 11.787 -0.52234 1.4025 1.9545 2032.2 -0.0075290 1300.1 0.20857 705.00 0.0014184 -100.50 11.787 -0.52234 1.4025 1.9545 2032.2 -0.0075290 1300.1 0.20857
-127.62 11825. undefined -99.100 16.549 -0.51266 705.00 0.0014184 -99.100 16.549 -0.51266 1.4046 1.9550 2034.5 -0.0075268 1287.0 0.20892 705.00 0.0014184 -99.100 16.549 -0.51266 1.4046 1.9550 2034.5 -0.0075268 1287.0 0.20892
-126.62 12168. undefined -97.694 21.304 -0.50304 705.00 0.0014184 -97.694 21.304 -0.50304 1.4066 1.9555 2036.8 -0.0075246 1274.3 0.20926 705.00 0.0014184 -97.694 21.304 -0.50304 1.4066 1.9555 2036.8 -0.0075246 1274.3 0.20926
-125.62 12509. undefined -96.286 26.050 -0.49346 705.00 0.0014184 -96.286 26.050 -0.49346 1.4087 1.9560 2039.2 -0.0075223 1261.8 0.20961 705.00 0.0014184 -96.286 26.050 -0.49346 1.4087 1.9560 2039.2 -0.0075223 1261.8 0.20961
-124.62 12849. undefined -94.877 30.787 -0.48394 705.00 0.0014184 -94.877 30.787 -0.48394 1.4108 1.9565 2041.5 -0.0075199 1249.7 0.20996 705.00 0.0014184 -94.877 30.787 -0.48394 1.4108 1.9565 2041.5 -0.0075199 1249.7 0.20996
-123.62 13189. undefined -93.465 35.517 -0.47446 705.00 0.0014184 -93.465 35.517 -0.47446 1.4130 1.9571 2043.7 -0.0075175 1237.9 0.21030 705.00 0.0014184 -93.465 35.517 -0.47446 1.4130 1.9571 2043.7 -0.0075175 1237.9 0.21030
-122.62 13527. undefined -92.051 40.238 -0.46504 705.00 0.0014184 -92.051 40.238 -0.46504 1.4151 1.9576 2046.0 -0.0075151 1226.4 0.21065 705.00 0.0014184 -92.051 40.238 -0.46504 1.4151 1.9576 2046.0 -0.0075151 1226.4 0.21065
-121.62 13864. undefined -90.635 44.952 -0.45566 705.00 0.0014184 -90.635 44.952 -0.45566 1.4172 1.9582 2048.2 -0.0075125 1215.1 0.21100 705.00 0.0014184 -90.635 44.952 -0.45566 1.4172 1.9582 2048.2 -0.0075125 1215.1 0.21100
-120.62 14200. undefined -89.216 49.658 -0.44633 705.00 0.0014184 -89.216 49.658 -0.44633 1.4193 1.9588 2050.5 -0.0075099 1204.1 0.21134 705.00 0.0014184 -89.216 49.658 -0.44633 1.4193 1.9588 2050.5 -0.0075099 1204.1 0.21134
-119.62 14535. undefined -87.796 54.356 -0.43705 705.00 0.0014184 -87.796 54.356 -0.43705 1.4215 1.9594 2052.7 -0.0075073 1193.4 0.21169 705.00 0.0014184 -87.796 54.356 -0.43705 1.4215 1.9594 2052.7 -0.0075073 1193.4 0.21169
-118.62 14869. undefined -86.373 59.046 -0.42781 705.00 0.0014184 -86.373 59.046 -0.42781 1.4236 1.9601 2054.9 -0.0075046 1182.9 0.21204 705.00 0.0014184 -86.373 59.046 -0.42781 1.4236 1.9601 2054.9 -0.0075046 1182.9 0.21204
-117.62 15203. undefined -84.949 63.729 -0.41862 705.00 0.0014184 -84.949 63.729 -0.41862 1.4257 1.9607 2057.0 -0.0075018 1172.7 0.21239 705.00 0.0014184 -84.949 63.729 -0.41862 1.4257 1.9607 2057.0 -0.0075018 1172.7 0.21239
-116.62 15535. undefined -83.522 68.404 -0.40948 705.00 0.0014184 -83.522 68.404 -0.40948 1.4279 1.9614 2059.2 -0.0074990 1162.7 0.21274 705.00 0.0014184 -83.522 68.404 -0.40948 1.4279 1.9614 2059.2 -0.0074990 1162.7 0.21274
-115.62 15866. undefined -82.093 73.072 -0.40038 705.00 0.0014184 -82.093 73.072 -0.40038 1.4301 1.9621 2061.3 -0.0074961 1152.9 0.21308 705.00 0.0014184 -82.093 73.072 -0.40038 1.4301 1.9621 2061.3 -0.0074961 1152.9 0.21308
-114.62 16196. undefined -80.662 77.733 -0.39132 705.00 0.0014184 -80.662 77.733 -0.39132 1.4322 1.9628 2063.5 -0.0074931 1143.4 0.21343 705.00 0.0014184 -80.662 77.733 -0.39132 1.4322 1.9628 2063.5 -0.0074931 1143.4 0.21343
-113.62 16525. undefined -79.228 82.386 -0.38231 705.00 0.0014184 -79.228 82.386 -0.38231 1.4344 1.9635 2065.6 -0.0074901 1134.1 0.21378 705.00 0.0014184 -79.228 82.386 -0.38231 1.4344 1.9635 2065.6 -0.0074901 1134.1 0.21378
-112.62 16854. undefined -77.793 87.032 -0.37334 705.00 0.0014184 -77.793 87.032 -0.37334 1.4366 1.9643 2067.7 -0.0074870 1124.9 0.21413 705.00 0.0014184 -77.793 87.032 -0.37334 1.4366 1.9643 2067.7 -0.0074870 1124.9 0.21413
-111.62 17181. undefined -76.355 91.671 -0.36441 705.00 0.0014184 -76.355 91.671 -0.36441 1.4388 1.9650 2069.8 -0.0074838 1116.0 0.21448 705.00 0.0014184 -76.355 91.671 -0.36441 1.4388 1.9650 2069.8 -0.0074838 1116.0 0.21448
-110.62 17507. undefined -74.915 96.303 -0.35552 705.00 0.0014184 -74.915 96.303 -0.35552 1.4410 1.9658 2071.8 -0.0074806 1107.3 0.21483 705.00 0.0014184 -74.915 96.303 -0.35552 1.4410 1.9658 2071.8 -0.0074806 1107.3 0.21483
-109.62 17833. undefined -73.473 100.93 -0.34668 705.00 0.0014184 -73.473 100.93 -0.34668 1.4432 1.9666 2073.9 -0.0074773 1098.7 0.21518 705.00 0.0014184 -73.473 100.93 -0.34668 1.4432 1.9666 2073.9 -0.0074773 1098.7 0.21518
-108.62 18157. undefined -72.029 105.55 -0.33787 705.00 0.0014184 -72.029 105.55 -0.33787 1.4455 1.9674 2075.9 -0.0074739 1090.4 0.21553 705.00 0.0014184 -72.029 105.55 -0.33787 1.4455 1.9674 2075.9 -0.0074739 1090.4 0.21553
-107.62 18481. undefined -70.582 110.16 -0.32911 705.00 0.0014184 -70.582 110.16 -0.32911 1.4477 1.9683 2077.9 -0.0074705 1082.2 0.21589 705.00 0.0014184 -70.582 110.16 -0.32911 1.4477 1.9683 2077.9 -0.0074705 1082.2 0.21589
-106.62 18804. undefined -69.133 114.76 -0.32038 705.00 0.0014184 -69.133 114.76 -0.32038 1.4500 1.9691 2079.9 -0.0074670 1074.1 0.21624 705.00 0.0014184 -69.133 114.76 -0.32038 1.4500 1.9691 2079.9 -0.0074670 1074.1 0.21624
-105.62 19125. undefined -67.682 119.36 -0.31169 705.00 0.0014184 -67.682 119.36 -0.31169 1.4522 1.9700 2081.9 -0.0074634 1066.3 0.21659 705.00 0.0014184 -67.682 119.36 -0.31169 1.4522 1.9700 2081.9 -0.0074634 1066.3 0.21659
-104.62 19446. undefined -66.229 123.95 -0.30304 705.00 0.0014184 -66.229 123.95 -0.30304 1.4545 1.9709 2083.9 -0.0074597 1058.6 0.21694 705.00 0.0014184 -66.229 123.95 -0.30304 1.4545 1.9709 2083.9 -0.0074597 1058.6 0.21694
-103.62 19766. undefined -64.773 128.54 -0.29443 705.00 0.0014184 -64.773 128.54 -0.29443 1.4568 1.9719 2085.8 -0.0074560 1051.1 0.21729 705.00 0.0014184 -64.773 128.54 -0.29443 1.4568 1.9719 2085.8 -0.0074560 1051.1 0.21729
