Temperature (C) Pressure (psia) Quality (l+v) Internal Energy (l+v, kJ/kg) Enthalpy (l+v, kJ/kg) Entropy (l+v, J/g*K) Density (l, kg/m3) Volume (l, m3/kg) Internal Energy (l, kJ/kg) Enthalpy (l, kJ/kg) Entropy (l, J/g*K) Cv (l, J/g*K) Cp (l, J/g*K) Sound Spd. (l, m/s) Joule-Thomson (l, F/psia) Viscosity (l, uPa*s) Therm. Cond. (l, W/m*K) Density (v, kg/m3) Volume (v, m3/kg) Internal Energy (v, kJ/kg) Enthalpy (v, kJ/kg) Entropy (v, J/g*K) Cv (v, J/g*K) Cp (v, J/g*K) Sound Spd. (v, m/s) Joule-Thomson (v, F/psia) Viscosity (v, uPa*s) Therm. Cond. (v, W/m*K)
-187.62 2.4953e-08 2.6528e-13 -196.64 -196.64 -1.3959 733.13 0.0013640 -196.64 -196.64 -1.3959 1.3553 1.9158 2136.4 -0.0077592 10960. 0.20792 1.0669e-08 9.3732e+07 350.13 366.26 5.1858 0.69067 0.87923 143.28 6.1051 2.3259 0.0017061
-186.62 3.7339e-08 3.6169e-13 -194.73 -194.73 -1.3736 732.08 0.0013660 -194.73 -194.73 -1.3736 1.3539 1.9166 2129.6 -0.0077546 10073. 0.20765 1.5780e-08 6.3371e+07 350.82 367.14 5.1200 0.69462 0.88317 144.03 5.9178 2.3534 0.0017533
-185.62 5.5322e-08 4.8473e-13 -192.81 -192.81 -1.3516 731.04 0.0013679 -192.81 -192.81 -1.3516 1.3525 1.9174 2122.9 -0.0077498 9276.1 0.20737 2.3112e-08 4.3267e+07 351.52 368.02 5.0561 0.69857 0.88713 144.77 5.7383 2.3808 0.0018007
-184.62 8.1182e-08 6.3789e-13 -190.89 -190.89 -1.3298 730.00 0.0013699 -190.89 -190.89 -1.3298 1.3513 1.9182 2116.1 -0.0077448 8557.8 0.20708 3.3533e-08 2.9821e+07 352.22 368.91 4.9939 0.70253 0.89108 145.51 5.5662 2.4083 0.0018485
-183.62 1.1803e-07 8.2291e-13 -188.97 -188.97 -1.3083 728.96 0.0013718 -188.97 -188.97 -1.3083 1.3501 1.9191 2109.3 -0.0077395 7909.8 0.20678 4.8211e-08 2.0742e+07 352.92 369.81 4.9333 0.70648 0.89504 146.24 5.4011 2.4357 0.0018965
-182.62 1.7009e-07 1.0383e-12 -187.05 -187.05 -1.2869 727.92 0.0013738 -187.05 -187.05 -1.2869 1.3490 1.9201 2102.5 -0.0077340 7324.3 0.20647 6.8704e-08 1.4555e+07 353.63 370.70 4.8744 0.71043 0.89899 146.97 5.2426 2.4632 0.0019448
-181.62 2.4299e-07 1.2769e-12 -185.13 -185.13 -1.2658 726.88 0.0013757 -185.13 -185.13 -1.2658 1.3480 1.9210 2095.7 -0.0077283 6794.5 0.20616 9.7079e-08 1.0301e+07 354.35 371.60 4.8170 0.71438 0.90294 147.69 5.0904 2.4906 0.0019934
-180.62 3.4425e-07 1.5225e-12 -183.21 -183.21 -1.2450 725.85 0.0013777 -183.21 -183.21 -1.2450 1.3470 1.9220 2088.9 -0.0077225 6314.4 0.20584 1.3605e-07 7.3504e+06 355.06 372.51 4.7612 0.71833 0.90688 148.41 4.9442 2.5181 0.0020423
-179.62 4.8378e-07 1.7450e-12 -181.29 -181.29 -1.2243 724.81 0.0013797 -181.29 -181.29 -1.2243 1.3461 1.9231 2082.0 -0.0077164 5878.8 0.20551 1.8915e-07 5.2868e+06 355.78 373.42 4.7068 0.72227 0.91082 149.13 4.8038 2.5456 0.0020915
-178.62 6.7459e-07 1.8937e-12 -179.37 -179.37 -1.2038 723.78 0.0013816 -179.37 -179.37 -1.2038 1.3453 1.9241 2075.2 -0.0077102 5482.9 0.20517 2.6096e-07 3.8320e+06 356.51 374.33 4.6538 0.72620 0.91475 149.84 4.6688 2.5731 0.0021410
-177.62 9.3358e-07 1.8886e-12 -177.44 -177.44 -1.1836 722.75 0.0013836 -177.44 -177.44 -1.1836 1.3445 1.9252 2068.4 -0.0077039 5122.6 0.20483 3.5737e-07 2.7982e+06 357.23 375.25 4.6022 0.73012 0.91867 150.54 4.5390 2.6005 0.0021907
-176.62 1.2826e-06 1.6080e-12 -175.52 -175.52 -1.1635 721.72 0.0013856 -175.52 -175.52 -1.1635 1.3437 1.9263 2061.5 -0.0076973 4794.1 0.20447 4.8588e-07 2.0581e+06 357.97 376.17 4.5519 0.73403 0.92258 151.25 4.4142 2.6280 0.0022408
-175.62 1.7496e-06 8.7293e-13 -173.59 -173.59 -1.1437 720.69 0.0013876 -173.59 -173.59 -1.1437 1.3430 1.9274 2054.7 -0.0076907 4494.3 0.20411 6.5601e-07 1.5244e+06 358.70 377.09 4.5029 0.73792 0.92648 151.95 4.2941 2.6555 0.0022912
-174.62 143.22 undefined -171.85 -170.48 -1.1260 720.00 0.0013889 -171.85 -170.48 -1.1260 1.3432 1.9283 2051.1 -0.0076854 4262.1 0.20400 720.00 0.0013889 -171.85 -170.48 -1.1260 1.3432 1.9283 2051.1 -0.0076854 4262.1 0.20400
-173.62 577.86 undefined -170.51 -164.97 -1.1124 720.00 0.0013889 -170.51 -164.97 -1.1124 1.3452 1.9284 2054.0 -0.0076832 4128.6 0.20439 720.00 0.0013889 -170.51 -164.97 -1.1124 1.3452 1.9284 2054.0 -0.0076832 4128.6 0.20439
-172.62 1010.6 undefined -169.16 -159.49 -1.0989 720.00 0.0013889 -169.16 -159.49 -1.0989 1.3472 1.9286 2057.0 -0.0076809 4002.6 0.20478 720.00 0.0013889 -169.16 -159.49 -1.0989 1.3472 1.9286 2057.0 -0.0076809 4002.6 0.20478
-171.62 1441.4 undefined -167.81 -154.01 -1.0856 720.00 0.0013889 -167.81 -154.01 -1.0856 1.3492 1.9288 2059.9 -0.0076785 3883.4 0.20517 720.00 0.0013889 -167.81 -154.01 -1.0856 1.3492 1.9288 2059.9 -0.0076785 3883.4 0.20517
-170.62 1870.3 undefined -166.46 -148.55 -1.0723 720.00 0.0013889 -166.46 -148.55 -1.0723 1.3512 1.9290 2062.9 -0.0076760 3770.6 0.20556 720.00 0.0013889 -166.46 -148.55 -1.0723 1.3512 1.9290 2062.9 -0.0076760 3770.6 0.20556
-169.62 2297.4 undefined -165.11 -143.11 -1.0592 720.00 0.0013889 -165.11 -143.11 -1.0592 1.3532 1.9292 2065.8 -0.0076735 3663.8 0.20595 720.00 0.0013889 -165.11 -143.11 -1.0592 1.3532 1.9292 2065.8 -0.0076735 3663.8 0.20595
-168.62 2722.7 undefined -163.76 -137.69 -1.0462 720.00 0.0013889 -163.76 -137.69 -1.0462 1.3552 1.9295 2068.7 -0.0076709 3562.5 0.20634 720.00 0.0013889 -163.76 -137.69 -1.0462 1.3552 1.9295 2068.7 -0.0076709 3562.5 0.20634
-167.62 3146.1 undefined -162.40 -132.27 -1.0333 720.00 0.0013889 -162.40 -132.27 -1.0333 1.3572 1.9298 2071.7 -0.0076683 3466.4 0.20674 720.00 0.0013889 -162.40 -132.27 -1.0333 1.3572 1.9298 2071.7 -0.0076683 3466.4 0.20674
-166.62 3567.9 undefined -161.04 -126.88 -1.0205 720.00 0.0013889 -161.04 -126.88 -1.0205 1.3592 1.9301 2074.6 -0.0076656 3375.1 0.20713 720.00 0.0013889 -161.04 -126.88 -1.0205 1.3592 1.9301 2074.6 -0.0076656 3375.1 0.20713
-165.62 3987.9 undefined -159.68 -121.49 -1.0078 720.00 0.0013889 -159.68 -121.49 -1.0078 1.3612 1.9304 2077.5 -0.0076629 3288.3 0.20752 720.00 0.0013889 -159.68 -121.49 -1.0078 1.3612 1.9304 2077.5 -0.0076629 3288.3 0.20752
-164.62 4406.2 undefined -158.32 -116.13 -0.99516 720.00 0.0013889 -158.32 -116.13 -0.99516 1.3632 1.9308 2080.4 -0.0076601 3205.8 0.20791 720.00 0.0013889 -158.32 -116.13 -0.99516 1.3632 1.9308 2080.4 -0.0076601 3205.8 0.20791
-163.62 4822.8 undefined -156.96 -110.77 -0.98264 720.00 0.0013889 -156.96 -110.77 -0.98264 1.3652 1.9311 2083.3 -0.0076573 3127.3 0.20831 720.00 0.0013889 -156.96 -110.77 -0.98264 1.3652 1.9311 2083.3 -0.0076573 3127.3 0.20831
-162.62 5237.8 undefined -155.59 -105.43 -0.97023 720.00 0.0013889 -155.59 -105.43 -0.97023 1.3672 1.9315 2086.2 -0.0076545 3052.4 0.20870 720.00 0.0013889 -155.59 -105.43 -0.97023 1.3672 1.9315 2086.2 -0.0076545 3052.4 0.20870
-161.62 5651.1 undefined -154.22 -100.11 -0.95790 720.00 0.0013889 -154.22 -100.11 -0.95790 1.3692 1.9319 2089.0 -0.0076516 2981.0 0.20909 720.00 0.0013889 -154.22 -100.11 -0.95790 1.3692 1.9319 2089.0 -0.0076516 2981.0 0.20909
-160.62 6062.8 undefined -152.85 -94.794 -0.94567 720.00 0.0013889 -152.85 -94.794 -0.94567 1.3713 1.9323 2091.9 -0.0076487 2913.0 0.20949 720.00 0.0013889 -152.85 -94.794 -0.94567 1.3713 1.9323 2091.9 -0.0076487 2913.0 0.20949
-159.62 6472.9 undefined -151.48 -89.495 -0.93353 720.00 0.0013889 -151.48 -89.495 -0.93353 1.3733 1.9327 2094.7 -0.0076458 2847.9 0.20988 720.00 0.0013889 -151.48 -89.495 -0.93353 1.3733 1.9327 2094.7 -0.0076458 2847.9 0.20988
-158.62 6881.4 undefined -150.11 -84.208 -0.92148 720.00 0.0013889 -150.11 -84.208 -0.92148 1.3753 1.9331 2097.5 -0.0076428 2785.8 0.21028 720.00 0.0013889 -150.11 -84.208 -0.92148 1.3753 1.9331 2097.5 -0.0076428 2785.8 0.21028
-157.62 7288.4 undefined -148.73 -78.935 -0.90951 720.00 0.0013889 -148.73 -78.935 -0.90951 1.3773 1.9335 2100.3 -0.0076399 2726.4 0.21067 720.00 0.0013889 -148.73 -78.935 -0.90951 1.3773 1.9335 2100.3 -0.0076399 2726.4 0.21067
-156.62 7693.8 undefined -147.35 -73.675 -0.89763 720.00 0.0013889 -147.35 -73.675 -0.89763 1.3793 1.9340 2103.0 -0.0076369 2669.5 0.21107 720.00 0.0013889 -147.35 -73.675 -0.89763 1.3793 1.9340 2103.0 -0.0076369 2669.5 0.21107
-155.62 8097.7 undefined -145.97 -68.427 -0.88584 720.00 0.0013889 -145.97 -68.427 -0.88584 1.3813 1.9344 2105.8 -0.0076339 2615.0 0.21146 720.00 0.0013889 -145.97 -68.427 -0.88584 1.3813 1.9344 2105.8 -0.0076339 2615.0 0.21146
-154.62 8500.0 undefined -144.59 -63.191 -0.87413 720.00 0.0013889 -144.59 -63.191 -0.87413 1.3833 1.9349 2108.5 -0.0076309 2562.9 0.21186 720.00 0.0013889 -144.59 -63.191 -0.87413 1.3833 1.9349 2108.5 -0.0076309 2562.9 0.21186
-153.62 8900.9 undefined -143.20 -57.968 -0.86250 720.00 0.0013889 -143.20 -57.968 -0.86250 1.3853 1.9353 2111.2 -0.0076279 2512.8 0.21225 720.00 0.0013889 -143.20 -57.968 -0.86250 1.3853 1.9353 2111.2 -0.0076279 2512.8 0.21225
-152.62 9300.3 undefined -141.82 -52.757 -0.85095 720.00 0.0013889 -141.82 -52.757 -0.85095 1.3873 1.9358 2113.9 -0.0076249 2464.8 0.21265 720.00 0.0013889 -141.82 -52.757 -0.85095 1.3873 1.9358 2113.9 -0.0076249 2464.8 0.21265
-151.62 9698.2 undefined -140.43 -47.558 -0.83947 720.00 0.0013889 -140.43 -47.558 -0.83947 1.3893 1.9363 2116.6 -0.0076218 2418.7 0.21305 720.00 0.0013889 -140.43 -47.558 -0.83947 1.3893 1.9363 2116.6 -0.0076218 2418.7 0.21305
-150.62 10095. undefined -139.04 -42.371 -0.82808 720.00 0.0013889 -139.04 -42.371 -0.82808 1.3913 1.9368 2119.2 -0.0076188 2374.5 0.21344 720.00 0.0013889 -139.04 -42.371 -0.82808 1.3913 1.9368 2119.2 -0.0076188 2374.5 0.21344
-149.62 10490. undefined -137.65 -37.196 -0.81676 720.00 0.0013889 -137.65 -37.196 -0.81676 1.3933 1.9373 2121.9 -0.0076157 2331.9 0.21384 720.00 0.0013889 -137.65 -37.196 -0.81676 1.3933 1.9373 2121.9 -0.0076157 2331.9 0.21384
-148.62 10883. undefined -136.25 -32.032 -0.80552 720.00 0.0013889 -136.25 -32.032 -0.80552 1.3953 1.9378 2124.5 -0.0076126 2291.0 0.21424 720.00 0.0013889 -136.25 -32.032 -0.80552 1.3953 1.9378 2124.5 -0.0076126 2291.0 0.21424
-147.62 11276. undefined -134.86 -26.879 -0.79435 720.00 0.0013889 -134.86 -26.879 -0.79435 1.3974 1.9383 2127.1 -0.0076095 2251.6 0.21464 720.00 0.0013889 -134.86 -26.879 -0.79435 1.3974 1.9383 2127.1 -0.0076095 2251.6 0.21464
-146.62 11666. undefined -133.46 -21.738 -0.78326 720.00 0.0013889 -133.46 -21.738 -0.78326 1.3994 1.9389 2129.6 -0.0076064 2213.7 0.21503 720.00 0.0013889 -133.46 -21.738 -0.78326 1.3994 1.9389 2129.6 -0.0076064 2213.7 0.21503
-145.62 12056. undefined -132.06 -16.609 -0.77223 720.00 0.0013889 -132.06 -16.609 -0.77223 1.4014 1.9394 2132.2 -0.0076032 2177.1 0.21543 720.00 0.0013889 -132.06 -16.609 -0.77223 1.4014 1.9394 2132.2 -0.0076032 2177.1 0.21543
-144.62 12444. undefined -130.65 -11.490 -0.76128 720.00 0.0013889 -130.65 -11.490 -0.76128 1.4034 1.9400 2134.7 -0.0076001 2141.9 0.21583 720.00 0.0013889 -130.65 -11.490 -0.76128 1.4034 1.9400 2134.7 -0.0076001 2141.9 0.21583
-143.62 12831. undefined -129.25 -6.3822 -0.75039 720.00 0.0013889 -129.25 -6.3822 -0.75039 1.4054 1.9405 2137.2 -0.0075969 2107.9 0.21623 720.00 0.0013889 -129.25 -6.3822 -0.75039 1.4054 1.9405 2137.2 -0.0075969 2107.9 0.21623
-142.62 13216. undefined -127.84 -1.2853 -0.73958 720.00 0.0013889 -127.84 -1.2853 -0.73958 1.4074 1.9411 2139.7 -0.0075937 2075.1 0.21663 720.00 0.0013889 -127.84 -1.2853 -0.73958 1.4074 1.9411 2139.7 -0.0075937 2075.1 0.21663
-141.62 13600. undefined -126.44 3.8009 -0.72883 720.00 0.0013889 -126.44 3.8009 -0.72883 1.4094 1.9416 2142.2 -0.0075905 2043.5 0.21703 720.00 0.0013889 -126.44 3.8009 -0.72883 1.4094 1.9416 2142.2 -0.0075905 2043.5 0.21703
-140.62 13983. undefined -125.03 8.8764 -0.71814 720.00 0.0013889 -125.03 8.8764 -0.71814 1.4114 1.9422 2144.6 -0.0075873 2012.9 0.21743 720.00 0.0013889 -125.03 8.8764 -0.71814 1.4114 1.9422 2144.6 -0.0075873 2012.9 0.21743
-139.62 14364. undefined -123.61 13.942 -0.70753 720.00 0.0013889 -123.61 13.942 -0.70753 1.4134 1.9428 2147.1 -0.0075841 1983.4 0.21783 720.00 0.0013889 -123.61 13.942 -0.70753 1.4134 1.9428 2147.1 -0.0075841 1983.4 0.21783
-138.62 14745. undefined -122.20 18.996 -0.69697 720.00 0.0013889 -122.20 18.996 -0.69697 1.4154 1.9434 2149.5 -0.0075809 1954.8 0.21823 720.00 0.0013889 -122.20 18.996 -0.69697 1.4154 1.9434 2149.5 -0.0075809 1954.8 0.21823
-137.62 15123. undefined -120.78 24.041 -0.68648 720.00 0.0013889 -120.78 24.041 -0.68648 1.4174 1.9440 2151.9 -0.0075776 1927.2 0.21863 720.00 0.0013889 -120.78 24.041 -0.68648 1.4174 1.9440 2151.9 -0.0075776 1927.2 0.21863
-136.62 15501. undefined -119.36 29.075 -0.67606 720.00 0.0013889 -119.36 29.075 -0.67606 1.4195 1.9446 2154.2 -0.0075743 1900.5 0.21903 720.00 0.0013889 -119.36 29.075 -0.67606 1.4195 1.9446 2154.2 -0.0075743 1900.5 0.21903
-135.62 15877. undefined -117.94 34.099 -0.66569 720.00 0.0013889 -117.94 34.099 -0.66569 1.4215 1.9453 2156.6 -0.0075710 1874.6 0.21943 720.00 0.0013889 -117.94 34.099 -0.66569 1.4215 1.9453 2156.6 -0.0075710 1874.6 0.21943
-134.62 16252. undefined -116.52 39.113 -0.65538 720.00 0.0013889 -116.52 39.113 -0.65538 1.4235 1.9459 2158.9 -0.0075676 1849.5 0.21983 720.00 0.0013889 -116.52 39.113 -0.65538 1.4235 1.9459 2158.9 -0.0075676 1849.5 0.21983
-133.62 16626. undefined -115.10 44.118 -0.64514 720.00 0.0013889 -115.10 44.118 -0.64514 1.4255 1.9465 2161.2 -0.0075643 1825.2 0.22024 720.00 0.0013889 -115.10 44.118 -0.64514 1.4255 1.9465 2161.2 -0.0075643 1825.2 0.22024
-132.62 16999. undefined -113.67 49.112 -0.63495 720.00 0.0013889 -113.67 49.112 -0.63495 1.4275 1.9472 2163.5 -0.0075609 1801.6 0.22064 720.00 0.0013889 -113.67 49.112 -0.63495 1.4275 1.9472 2163.5 -0.0075609 1801.6 0.22064
-131.62 17370. undefined -112.24 54.097 -0.62482 720.00 0.0013889 -112.24 54.097 -0.62482 1.4296 1.9479 2165.8 -0.0075575 1778.8 0.22104 720.00 0.0013889 -112.24 54.097 -0.62482 1.4296 1.9479 2165.8 -0.0075575 1778.8 0.22104
-130.62 17740. undefined -110.81 59.073 -0.61475 720.00 0.0013889 -110.81 59.073 -0.61475 1.4316 1.9485 2168.0 -0.0075540 1756.6 0.22144 720.00 0.0013889 -110.81 59.073 -0.61475 1.4316 1.9485 2168.0 -0.0075540 1756.6 0.22144
-129.62 18109. undefined -109.38 64.039 -0.60473 720.00 0.0013889 -109.38 64.039 -0.60473 1.4336 1.9492 2170.3 -0.0075505 1735.1 0.22185 720.00 0.0013889 -109.38 64.039 -0.60473 1.4336 1.9492 2170.3 -0.0075505 1735.1 0.22185
-128.62 18477. undefined -107.94 68.995 -0.59477 720.00 0.0013889 -107.94 68.995 -0.59477 1.4357 1.9499 2172.5 -0.0075470 1714.2 0.22225 720.00 0.0013889 -107.94 68.995 -0.59477 1.4357 1.9499 2172.5 -0.0075470 1714.2 0.22225
-127.62 18844. undefined -106.51 73.943 -0.58486 720.00 0.0013889 -106.51 73.943 -0.58486 1.4377 1.9506 2174.7 -0.0075435 1694.0 0.22265 720.00 0.0013889 -106.51 73.943 -0.58486 1.4377 1.9506 2174.7 -0.0075435 1694.0 0.22265
-126.62 19209. undefined -105.07 78.881 -0.57501 720.00 0.0013889 -105.07 78.881 -0.57501 1.4398 1.9514 2176.9 -0.0075399 1674.2 0.22306 720.00 0.0013889 -105.07 78.881 -0.57501 1.4398 1.9514 2176.9 -0.0075399 1674.2 0.22306
-125.62 19573. undefined -103.63 83.810 -0.56521 720.00 0.0013889 -103.63 83.810 -0.56521 1.4418 1.9521 2179.0 -0.0075363 1655.1 0.22346 720.00 0.0013889 -103.63 83.810 -0.56521 1.4418 1.9521 2179.0 -0.0075363 1655.1 0.22346
-124.62 19937. undefined -102.18 88.730 -0.55546 720.00 0.0013889 -102.18 88.730 -0.55546 1.4439 1.9528 2181.2 -0.0075327 1636.5 0.22387 720.00 0.0013889 -102.18 88.730 -0.55546 1.4439 1.9528 2181.2 -0.0075327 1636.5 0.22387
-123.62 20299. undefined -100.74 93.641 -0.54577 720.00 0.0013889 -100.74 93.641 -0.54577 1.4460 1.9536 2183.3 -0.0075290 1618.3 0.22427 720.00 0.0013889 -100.74 93.641 -0.54577 1.4460 1.9536 2183.3 -0.0075290 1618.3 0.22427
-122.62 20659. undefined -99.292 98.544 -0.53612 720.00 0.0013889 -99.292 98.544 -0.53612 1.4480 1.9544 2185.4 -0.0075253 1600.7 0.22468 720.00 0.0013889 -99.292 98.544 -0.53612 1.4480 1.9544 2185.4 -0.0075253 1600.7 0.22468
-121.62 21019. undefined -97.843 103.44 -0.52653 720.00 0.0013889 -97.843 103.44 -0.52653 1.4501 1.9552 2187.5 -0.0075215 1583.5 0.22508 720.00 0.0013889 -97.843 103.44 -0.52653 1.4501 1.9552 2187.5 -0.0075215 1583.5 0.22508
-120.62 21378. undefined -96.392 108.32 -0.51698 720.00 0.0013889 -96.392 108.32 -0.51698 1.4522 1.9560 2189.6 -0.0075177 1566.8 0.22549 720.00 0.0013889 -96.392 108.32 -0.51698 1.4522 1.9560 2189.6 -0.0075177 1566.8 0.22549
-119.62 21735. undefined -94.938 113.20 -0.50748 720.00 0.0013889 -94.938 113.20 -0.50748 1.4543 1.9568 2191.6 -0.0075139 1550.6 0.22589 720.00 0.0013889 -94.938 113.20 -0.50748 1.4543 1.9568 2191.6 -0.0075139 1550.6 0.22589
-118.62 22092. undefined -93.483 118.07 -0.49803 720.00 0.0013889 -93.483 118.07 -0.49803 1.4564 1.9576 2193.7 -0.0075100 1534.7 0.22630 720.00 0.0013889 -93.483 118.07 -0.49803 1.4564 1.9576 2193.7 -0.0075100 1534.7 0.22630
-117.62 22447. undefined -92.026 122.93 -0.48863 720.00 0.0013889 -92.026 122.93 -0.48863 1.4585 1.9584 2195.7 -0.0075061 1519.3 0.22671 720.00 0.0013889 -92.026 122.93 -0.48863 1.4585 1.9584 2195.7 -0.0075061 1519.3 0.22671
-116.62 22801. undefined -90.566 127.78 -0.47928 720.00 0.0013889 -90.566 127.78 -0.47928 1.4606 1.9593 2197.7 -0.0075021 1504.2 0.22711 720.00 0.0013889 -90.566 127.78 -0.47928 1.4606 1.9593 2197.7 -0.0075021 1504.2 0.22711
-115.62 23154. undefined -89.104 132.62 -0.46997 720.00 0.0013889 -89.104 132.62 -0.46997 1.4627 1.9602 2199.7 -0.0074981 1489.5 0.22752 720.00 0.0013889 -89.104 132.62 -0.46997 1.4627 1.9602 2199.7 -0.0074981 1489.5 0.22752
-114.62 23506. undefined -87.641 137.46 -0.46071 720.00 0.0013889 -87.641 137.46 -0.46071 1.4648 1.9611 2201.7 -0.0074940 1475.2 0.22793 720.00 0.0013889 -87.641 137.46 -0.46071 1.4648 1.9611 2201.7 -0.0074940 1475.2 0.22793
-113.62 23858. undefined -86.175 142.29 -0.45149 720.00 0.0013889 -86.175 142.29 -0.45149 1.4670 1.9620 2203.7 -0.0074899 1461.2 0.22834 720.00 0.0013889 -86.175 142.29 -0.45149 1.4670 1.9620 2203.7 -0.0074899 1461.2 0.22834
-112.62 24208. undefined -84.707 147.11 -0.44231 720.00 0.0013889 -84.707 147.11 -0.44231 1.4691 1.9629 2205.6 -0.0074858 1447.6 0.22874 720.00 0.0013889 -84.707 147.11 -0.44231 1.4691 1.9629 2205.6 -0.0074858 1447.6 0.22874
-111.62 24556. undefined -83.236 151.92 -0.43318 720.00 0.0013889 -83.236 151.92 -0.43318 1.4713 1.9638 2207.5 -0.0074816 1434.3 0.22915 720.00 0.0013889 -83.236 151.92 -0.43318 1.4713 1.9638 2207.5 -0.0074816 1434.3 0.22915
-110.62 24904. undefined -81.764 156.72 -0.42410 720.00 0.0013889 -81.764 156.72 -0.42410 1.4734 1.9648 2209.5 -0.0074773 1421.3 0.22956 720.00 0.0013889 -81.764 156.72 -0.42410 1.4734 1.9648 2209.5 -0.0074773 1421.3 0.22956
-109.62 25251. undefined -80.290 161.52 -0.41505 720.00 0.0013889 -80.290 161.52 -0.41505 1.4756 1.9657 2211.4 -0.0074730 1408.6 0.22997 720.00 0.0013889 -80.290 161.52 -0.41505 1.4756 1.9657 2211.4 -0.0074730 1408.6 0.22997
-108.62 25597. undefined -78.813 166.31 -0.40605 720.00 0.0013889 -78.813 166.31 -0.40605 1.4778 1.9667 2213.3 -0.0074686 1396.2 0.23038 720.00 0.0013889 -78.813 166.31 -0.40605 1.4778 1.9667 2213.3 -0.0074686 1396.2 0.23038
-107.62 25942. undefined -77.334 171.09 -0.39709 720.00 0.0013889 -77.334 171.09 -0.39709 1.4800 1.9677 2215.1 -0.0074642 1384.1 0.23079 720.00 0.0013889 -77.334 171.09 -0.39709 1.4800 1.9677 2215.1 -0.0074642 1384.1 0.23079
-106.62 26286. undefined -75.853 175.86 -0.38817 720.00 0.0013889 -75.853 175.86 -0.38817 1.4822 1.9688 2217.0 -0.0074597 1372.2 0.23120 720.00 0.0013889 -75.853 175.86 -0.38817 1.4822 1.9688 2217.0 -0.0074597 1372.2 0.23120
-105.62 26629. undefined -74.370 180.63 -0.37929 720.00 0.0013889 -74.370 180.63 -0.37929 1.4844 1.9698 2218.8 -0.0074552 1360.7 0.23161 720.00 0.0013889 -74.370 180.63 -0.37929 1.4844 1.9698 2218.8 -0.0074552 1360.7 0.23161
-104.62 26971. undefined -72.884 185.39 -0.37044 720.00 0.0013889 -72.884 185.39 -0.37044 1.4866 1.9708 2220.7 -0.0074506 1349.4 0.23202 720.00 0.0013889 -72.884 185.39 -0.37044 1.4866 1.9708 2220.7 -0.0074506 1349.4 0.23202
-103.62 27312. undefined -71.396 190.14 -0.36164 720.00 0.0013889 -71.396 190.14 -0.36164 1.4889 1.9719 2222.5 -0.0074459 1338.3 0.23243 720.00 0.0013889 -71.396 190.14 -0.36164 1.4889 1.9719 2222.5 -0.0074459 1338.3 0.23243
