Temperature (C) Pressure (psia) Quality (l+v) Internal Energy (l+v, kJ/kg) Enthalpy (l+v, kJ/kg) Entropy (l+v, J/g*K) Density (l, kg/m3) Volume (l, m3/kg) Internal Energy (l, kJ/kg) Enthalpy (l, kJ/kg) Entropy (l, J/g*K) Cv (l, J/g*K) Cp (l, J/g*K) Sound Spd. (l, m/s) Joule-Thomson (l, F/psia) Viscosity (l, uPa*s) Therm. Cond. (l, W/m*K) Density (v, kg/m3) Volume (v, m3/kg) Internal Energy (v, kJ/kg) Enthalpy (v, kJ/kg) Entropy (v, J/g*K) Cv (v, J/g*K) Cp (v, J/g*K) Sound Spd. (v, m/s) Joule-Thomson (v, F/psia) Viscosity (v, uPa*s) Therm. Cond. (v, W/m*K)
-187.62 2.4953e-08 6.2300e-14 -196.64 -196.64 -1.3959 733.13 0.0013640 -196.64 -196.64 -1.3959 1.3553 1.9158 2136.4 -0.0077592 10960. 0.20792 1.0669e-08 9.3732e+07 350.13 366.26 5.1858 0.69067 0.87923 143.28 6.1051 2.3259 0.0017061
-186.62 3.7339e-08 6.1458e-14 -194.73 -194.73 -1.3736 732.08 0.0013660 -194.73 -194.73 -1.3736 1.3539 1.9166 2129.6 -0.0077546 10073. 0.20765 1.5780e-08 6.3371e+07 350.82 367.14 5.1200 0.69462 0.88317 144.03 5.9178 2.3534 0.0017533
-185.62 5.5322e-08 4.5001e-14 -192.81 -192.81 -1.3516 731.04 0.0013679 -192.81 -192.81 -1.3516 1.3525 1.9174 2122.9 -0.0077498 9276.1 0.20737 2.3112e-08 4.3267e+07 351.52 368.02 5.0561 0.69857 0.88713 144.77 5.7383 2.3808 0.0018007
-184.62 0.83164 undefined -190.89 -190.89 -1.3298 730.00 0.0013699 -190.89 -190.89 -1.3298 1.3513 1.9182 2116.1 -0.0077448 8558.3 0.20708 730.00 0.0013699 -190.89 -190.89 -1.3298 1.3513 1.9182 2116.1 -0.0077448 8558.3 0.20708
-183.62 475.53 undefined -189.54 -185.05 -1.3146 730.00 0.0013699 -189.54 -185.05 -1.3146 1.3530 1.9183 2119.2 -0.0077421 8181.1 0.20751 730.00 0.0013699 -189.54 -185.05 -1.3146 1.3530 1.9183 2119.2 -0.0077421 8181.1 0.20751
-182.62 947.90 undefined -188.19 -179.23 -1.2996 730.00 0.0013699 -188.19 -179.23 -1.2996 1.3546 1.9184 2122.3 -0.0077393 7829.2 0.20794 730.00 0.0013699 -188.19 -179.23 -1.2996 1.3546 1.9184 2122.3 -0.0077393 7829.2 0.20794
-181.62 1418.0 undefined -186.83 -173.44 -1.2847 730.00 0.0013699 -186.83 -173.44 -1.2847 1.3563 1.9186 2125.4 -0.0077364 7500.6 0.20837 730.00 0.0013699 -186.83 -173.44 -1.2847 1.3563 1.9186 2125.4 -0.0077364 7500.6 0.20837
-180.62 1885.8 undefined -185.47 -167.66 -1.2700 730.00 0.0013699 -185.47 -167.66 -1.2700 1.3580 1.9188 2128.6 -0.0077333 7193.3 0.20880 730.00 0.0013699 -185.47 -167.66 -1.2700 1.3580 1.9188 2128.6 -0.0077333 7193.3 0.20880
-179.62 2351.5 undefined -184.12 -161.91 -1.2554 730.00 0.0013699 -184.12 -161.91 -1.2554 1.3598 1.9190 2131.7 -0.0077301 6905.6 0.20924 730.00 0.0013699 -184.12 -161.91 -1.2554 1.3598 1.9190 2131.7 -0.0077301 6905.6 0.20924
-178.62 2815.0 undefined -182.75 -156.17 -1.2409 730.00 0.0013699 -182.75 -156.17 -1.2409 1.3615 1.9193 2134.8 -0.0077267 6636.1 0.20967 730.00 0.0013699 -182.75 -156.17 -1.2409 1.3615 1.9193 2134.8 -0.0077267 6636.1 0.20967
-177.62 3276.4 undefined -181.39 -150.45 -1.2265 730.00 0.0013699 -181.39 -150.45 -1.2265 1.3633 1.9196 2138.0 -0.0077233 6383.4 0.21010 730.00 0.0013699 -181.39 -150.45 -1.2265 1.3633 1.9196 2138.0 -0.0077233 6383.4 0.21010
-176.62 3735.7 undefined -180.03 -144.74 -1.2123 730.00 0.0013699 -180.03 -144.74 -1.2123 1.3651 1.9199 2141.1 -0.0077198 6146.1 0.21054 730.00 0.0013699 -180.03 -144.74 -1.2123 1.3651 1.9199 2141.1 -0.0077198 6146.1 0.21054
-175.62 4193.0 undefined -178.66 -139.06 -1.1983 730.00 0.0013699 -178.66 -139.06 -1.1983 1.3669 1.9203 2144.2 -0.0077162 5923.1 0.21097 730.00 0.0013699 -178.66 -139.06 -1.1983 1.3669 1.9203 2144.2 -0.0077162 5923.1 0.21097
-174.62 4648.3 undefined -177.29 -133.39 -1.1843 730.00 0.0013699 -177.29 -133.39 -1.1843 1.3687 1.9207 2147.3 -0.0077125 5713.3 0.21140 730.00 0.0013699 -177.29 -133.39 -1.1843 1.3687 1.9207 2147.3 -0.0077125 5713.3 0.21140
-173.62 5101.6 undefined -175.93 -127.74 -1.1705 730.00 0.0013699 -175.93 -127.74 -1.1705 1.3705 1.9211 2150.4 -0.0077088 5515.8 0.21184 730.00 0.0013699 -175.93 -127.74 -1.1705 1.3705 1.9211 2150.4 -0.0077088 5515.8 0.21184
-172.62 5552.9 undefined -174.55 -122.11 -1.1568 730.00 0.0013699 -174.55 -122.11 -1.1568 1.3724 1.9216 2153.5 -0.0077050 5329.7 0.21227 730.00 0.0013699 -174.55 -122.11 -1.1568 1.3724 1.9216 2153.5 -0.0077050 5329.7 0.21227
-171.62 6002.4 undefined -173.18 -116.49 -1.1432 730.00 0.0013699 -173.18 -116.49 -1.1432 1.3742 1.9221 2156.5 -0.0077011 5154.1 0.21271 730.00 0.0013699 -173.18 -116.49 -1.1432 1.3742 1.9221 2156.5 -0.0077011 5154.1 0.21271
-170.62 6449.9 undefined -171.81 -110.89 -1.1297 730.00 0.0013699 -171.81 -110.89 -1.1297 1.3761 1.9225 2159.5 -0.0076973 4988.4 0.21314 730.00 0.0013699 -171.81 -110.89 -1.1297 1.3761 1.9225 2159.5 -0.0076973 4988.4 0.21314
-169.62 6895.6 undefined -170.43 -105.30 -1.1163 730.00 0.0013699 -170.43 -105.30 -1.1163 1.3780 1.9230 2162.6 -0.0076934 4831.7 0.21358 730.00 0.0013699 -170.43 -105.30 -1.1163 1.3780 1.9230 2162.6 -0.0076934 4831.7 0.21358
-168.62 7339.4 undefined -169.05 -99.730 -1.1031 730.00 0.0013699 -169.05 -99.730 -1.1031 1.3799 1.9236 2165.6 -0.0076894 4683.6 0.21401 730.00 0.0013699 -169.05 -99.730 -1.1031 1.3799 1.9236 2165.6 -0.0076894 4683.6 0.21401
-167.62 7781.4 undefined -167.67 -94.174 -1.0899 730.00 0.0013699 -167.67 -94.174 -1.0899 1.3818 1.9241 2168.5 -0.0076855 4543.4 0.21445 730.00 0.0013699 -167.67 -94.174 -1.0899 1.3818 1.9241 2168.5 -0.0076855 4543.4 0.21445
-166.62 8221.6 undefined -166.29 -88.634 -1.0769 730.00 0.0013699 -166.29 -88.634 -1.0769 1.3837 1.9247 2171.5 -0.0076815 4410.5 0.21489 730.00 0.0013699 -166.29 -88.634 -1.0769 1.3837 1.9247 2171.5 -0.0076815 4410.5 0.21489
-165.62 8660.0 undefined -164.90 -83.109 -1.0639 730.00 0.0013699 -164.90 -83.109 -1.0639 1.3856 1.9252 2174.4 -0.0076775 4284.5 0.21532 730.00 0.0013699 -164.90 -83.109 -1.0639 1.3856 1.9252 2174.4 -0.0076775 4284.5 0.21532
-164.62 9096.6 undefined -163.51 -77.598 -1.0511 730.00 0.0013699 -163.51 -77.598 -1.0511 1.3876 1.9258 2177.3 -0.0076735 4165.0 0.21576 730.00 0.0013699 -163.51 -77.598 -1.0511 1.3876 1.9258 2177.3 -0.0076735 4165.0 0.21576
-163.62 9531.5 undefined -162.13 -72.102 -1.0384 730.00 0.0013699 -162.13 -72.102 -1.0384 1.3895 1.9264 2180.2 -0.0076695 4051.4 0.21620 730.00 0.0013699 -162.13 -72.102 -1.0384 1.3895 1.9264 2180.2 -0.0076695 4051.4 0.21620
-162.62 9964.7 undefined -160.74 -66.620 -1.0257 730.00 0.0013699 -160.74 -66.620 -1.0257 1.3914 1.9270 2183.1 -0.0076655 3943.5 0.21663 730.00 0.0013699 -160.74 -66.620 -1.0257 1.3914 1.9270 2183.1 -0.0076655 3943.5 0.21663
-161.62 10396. undefined -159.34 -61.152 -1.0132 730.00 0.0013699 -159.34 -61.152 -1.0132 1.3934 1.9276 2185.9 -0.0076615 3840.9 0.21707 730.00 0.0013699 -159.34 -61.152 -1.0132 1.3934 1.9276 2185.9 -0.0076615 3840.9 0.21707
-160.62 10826. undefined -157.95 -55.698 -1.0007 730.00 0.0013699 -157.95 -55.698 -1.0007 1.3953 1.9282 2188.7 -0.0076574 3743.2 0.21751 730.00 0.0013699 -157.95 -55.698 -1.0007 1.3953 1.9282 2188.7 -0.0076574 3743.2 0.21751
-159.62 11254. undefined -156.55 -50.258 -0.98839 730.00 0.0013699 -156.55 -50.258 -0.98839 1.3973 1.9288 2191.5 -0.0076534 3650.1 0.21795 730.00 0.0013699 -156.55 -50.258 -0.98839 1.3973 1.9288 2191.5 -0.0076534 3650.1 0.21795
-158.62 11681. undefined -155.15 -44.832 -0.97613 730.00 0.0013699 -155.15 -44.832 -0.97613 1.3992 1.9294 2194.2 -0.0076494 3561.4 0.21839 730.00 0.0013699 -155.15 -44.832 -0.97613 1.3992 1.9294 2194.2 -0.0076494 3561.4 0.21839
-157.62 12106. undefined -153.75 -39.419 -0.96396 730.00 0.0013699 -153.75 -39.419 -0.96396 1.4012 1.9300 2197.0 -0.0076454 3476.8 0.21882 730.00 0.0013699 -153.75 -39.419 -0.96396 1.4012 1.9300 2197.0 -0.0076454 3476.8 0.21882
-156.62 12529. undefined -152.35 -34.019 -0.95187 730.00 0.0013699 -152.35 -34.019 -0.95187 1.4032 1.9307 2199.7 -0.0076414 3395.9 0.21926 730.00 0.0013699 -152.35 -34.019 -0.95187 1.4032 1.9307 2199.7 -0.0076414 3395.9 0.21926
-155.62 12950. undefined -150.95 -28.632 -0.93987 730.00 0.0013699 -150.95 -28.632 -0.93987 1.4051 1.9313 2202.4 -0.0076374 3318.8 0.21970 730.00 0.0013699 -150.95 -28.632 -0.93987 1.4051 1.9313 2202.4 -0.0076374 3318.8 0.21970
-154.62 13370. undefined -149.54 -23.259 -0.92796 730.00 0.0013699 -149.54 -23.259 -0.92796 1.4071 1.9320 2205.0 -0.0076334 3245.0 0.22014 730.00 0.0013699 -149.54 -23.259 -0.92796 1.4071 1.9320 2205.0 -0.0076334 3245.0 0.22014
-153.62 13789. undefined -148.13 -17.898 -0.91613 730.00 0.0013699 -148.13 -17.898 -0.91613 1.4091 1.9326 2207.7 -0.0076294 3174.4 0.22058 730.00 0.0013699 -148.13 -17.898 -0.91613 1.4091 1.9326 2207.7 -0.0076294 3174.4 0.22058
-152.62 14206. undefined -146.72 -12.550 -0.90438 730.00 0.0013699 -146.72 -12.550 -0.90438 1.4110 1.9333 2210.3 -0.0076254 3106.8 0.22102 730.00 0.0013699 -146.72 -12.550 -0.90438 1.4110 1.9333 2210.3 -0.0076254 3106.8 0.22102
-151.62 14621. undefined -145.31 -7.2146 -0.89271 730.00 0.0013699 -145.31 -7.2146 -0.89271 1.4130 1.9339 2212.9 -0.0076215 3042.1 0.22146 730.00 0.0013699 -145.31 -7.2146 -0.89271 1.4130 1.9339 2212.9 -0.0076215 3042.1 0.22146
-150.62 15035. undefined -143.90 -1.8916 -0.88113 730.00 0.0013699 -143.90 -1.8916 -0.88113 1.4150 1.9346 2215.5 -0.0076175 2980.0 0.22190 730.00 0.0013699 -143.90 -1.8916 -0.88113 1.4150 1.9346 2215.5 -0.0076175 2980.0 0.22190
-149.62 15448. undefined -142.48 3.4191 -0.86962 730.00 0.0013699 -142.48 3.4191 -0.86962 1.4170 1.9353 2218.0 -0.0076135 2920.5 0.22235 730.00 0.0013699 -142.48 3.4191 -0.86962 1.4170 1.9353 2218.0 -0.0076135 2920.5 0.22235
-148.62 15858. undefined -141.06 8.7177 -0.85818 730.00 0.0013699 -141.06 8.7177 -0.85818 1.4189 1.9359 2220.5 -0.0076096 2863.4 0.22279 730.00 0.0013699 -141.06 8.7177 -0.85818 1.4189 1.9359 2220.5 -0.0076096 2863.4 0.22279
-147.62 16268. undefined -139.64 14.004 -0.84683 730.00 0.0013699 -139.64 14.004 -0.84683 1.4209 1.9366 2223.0 -0.0076056 2808.6 0.22323 730.00 0.0013699 -139.64 14.004 -0.84683 1.4209 1.9366 2223.0 -0.0076056 2808.6 0.22323
-146.62 16676. undefined -138.22 19.279 -0.83554 730.00 0.0013699 -138.22 19.279 -0.83554 1.4229 1.9373 2225.5 -0.0076017 2755.9 0.22367 730.00 0.0013699 -138.22 19.279 -0.83554 1.4229 1.9373 2225.5 -0.0076017 2755.9 0.22367
-145.62 17082. undefined -136.80 24.542 -0.82433 730.00 0.0013699 -136.80 24.542 -0.82433 1.4249 1.9380 2228.0 -0.0075977 2705.3 0.22411 730.00 0.0013699 -136.80 24.542 -0.82433 1.4249 1.9380 2228.0 -0.0075977 2705.3 0.22411
-144.62 17487. undefined -135.37 29.793 -0.81320 730.00 0.0013699 -135.37 29.793 -0.81320 1.4268 1.9387 2230.4 -0.0075938 2656.6 0.22456 730.00 0.0013699 -135.37 29.793 -0.81320 1.4268 1.9387 2230.4 -0.0075938 2656.6 0.22456
-143.62 17891. undefined -133.94 35.032 -0.80213 730.00 0.0013699 -133.94 35.032 -0.80213 1.4288 1.9394 2232.8 -0.0075898 2609.7 0.22500 730.00 0.0013699 -133.94 35.032 -0.80213 1.4288 1.9394 2232.8 -0.0075898 2609.7 0.22500
-142.62 18293. undefined -132.51 40.260 -0.79113 730.00 0.0013699 -132.51 40.260 -0.79113 1.4308 1.9401 2235.2 -0.0075859 2564.6 0.22544 730.00 0.0013699 -132.51 40.260 -0.79113 1.4308 1.9401 2235.2 -0.0075859 2564.6 0.22544
-141.62 18694. undefined -131.08 45.477 -0.78021 730.00 0.0013699 -131.08 45.477 -0.78021 1.4328 1.9408 2237.6 -0.0075819 2521.1 0.22589 730.00 0.0013699 -131.08 45.477 -0.78021 1.4328 1.9408 2237.6 -0.0075819 2521.1 0.22589
-140.62 19093. undefined -129.65 50.683 -0.76935 730.00 0.0013699 -129.65 50.683 -0.76935 1.4348 1.9415 2239.9 -0.0075779 2479.2 0.22633 730.00 0.0013699 -129.65 50.683 -0.76935 1.4348 1.9415 2239.9 -0.0075779 2479.2 0.22633
-139.62 19491. undefined -128.21 55.877 -0.75855 730.00 0.0013699 -128.21 55.877 -0.75855 1.4368 1.9422 2242.2 -0.0075740 2438.8 0.22677 730.00 0.0013699 -128.21 55.877 -0.75855 1.4368 1.9422 2242.2 -0.0075740 2438.8 0.22677
-138.62 19888. undefined -126.77 61.061 -0.74783 730.00 0.0013699 -126.77 61.061 -0.74783 1.4387 1.9430 2244.5 -0.0075700 2399.8 0.22722 730.00 0.0013699 -126.77 61.061 -0.74783 1.4387 1.9430 2244.5 -0.0075700 2399.8 0.22722
-137.62 20283. undefined -125.34 66.234 -0.73716 730.00 0.0013699 -125.34 66.234 -0.73716 1.4407 1.9437 2246.8 -0.0075660 2362.2 0.22766 730.00 0.0013699 -125.34 66.234 -0.73716 1.4407 1.9437 2246.8 -0.0075660 2362.2 0.22766
-136.62 20677. undefined -123.89 71.396 -0.72656 730.00 0.0013699 -123.89 71.396 -0.72656 1.4427 1.9444 2249.1 -0.0075621 2325.8 0.22811 730.00 0.0013699 -123.89 71.396 -0.72656 1.4427 1.9444 2249.1 -0.0075621 2325.8 0.22811
-135.62 21069. undefined -122.45 76.547 -0.71603 730.00 0.0013699 -122.45 76.547 -0.71603 1.4447 1.9452 2251.3 -0.0075581 2290.7 0.22855 730.00 0.0013699 -122.45 76.547 -0.71603 1.4447 1.9452 2251.3 -0.0075581 2290.7 0.22855
-134.62 21460. undefined -121.00 81.688 -0.70555 730.00 0.0013699 -121.00 81.688 -0.70555 1.4467 1.9460 2253.6 -0.0075541 2256.7 0.22900 730.00 0.0013699 -121.00 81.688 -0.70555 1.4467 1.9460 2253.6 -0.0075541 2256.7 0.22900
-133.62 21850. undefined -119.56 86.818 -0.69514 730.00 0.0013699 -119.56 86.818 -0.69514 1.4487 1.9467 2255.8 -0.0075501 2223.9 0.22944 730.00 0.0013699 -119.56 86.818 -0.69514 1.4487 1.9467 2255.8 -0.0075501 2223.9 0.22944
-132.62 22239. undefined -118.11 91.938 -0.68479 730.00 0.0013699 -118.11 91.938 -0.68479 1.4507 1.9475 2258.0 -0.0075460 2192.1 0.22989 730.00 0.0013699 -118.11 91.938 -0.68479 1.4507 1.9475 2258.0 -0.0075460 2192.1 0.22989
-131.62 22626. undefined -116.65 97.048 -0.67449 730.00 0.0013699 -116.65 97.048 -0.67449 1.4527 1.9483 2260.1 -0.0075420 2161.3 0.23034 730.00 0.0013699 -116.65 97.048 -0.67449 1.4527 1.9483 2260.1 -0.0075420 2161.3 0.23034
-130.62 23012. undefined -115.20 102.15 -0.66426 730.00 0.0013699 -115.20 102.15 -0.66426 1.4547 1.9491 2262.3 -0.0075379 2131.5 0.23078 730.00 0.0013699 -115.20 102.15 -0.66426 1.4547 1.9491 2262.3 -0.0075379 2131.5 0.23078
-129.62 23397. undefined -113.75 107.24 -0.65408 730.00 0.0013699 -113.75 107.24 -0.65408 1.4567 1.9499 2264.4 -0.0075338 2102.7 0.23123 730.00 0.0013699 -113.75 107.24 -0.65408 1.4567 1.9499 2264.4 -0.0075338 2102.7 0.23123
-128.62 23781. undefined -112.29 112.32 -0.64396 730.00 0.0013699 -112.29 112.32 -0.64396 1.4587 1.9507 2266.5 -0.0075297 2074.7 0.23168 730.00 0.0013699 -112.29 112.32 -0.64396 1.4587 1.9507 2266.5 -0.0075297 2074.7 0.23168
-127.62 24163. undefined -110.83 117.39 -0.63389 730.00 0.0013699 -110.83 117.39 -0.63389 1.4607 1.9515 2268.6 -0.0075256 2047.6 0.23213 730.00 0.0013699 -110.83 117.39 -0.63389 1.4607 1.9515 2268.6 -0.0075256 2047.6 0.23213
-126.62 24544. undefined -109.37 122.45 -0.62388 730.00 0.0013699 -109.37 122.45 -0.62388 1.4628 1.9523 2270.7 -0.0075215 2021.3 0.23257 730.00 0.0013699 -109.37 122.45 -0.62388 1.4628 1.9523 2270.7 -0.0075215 2021.3 0.23257
-125.62 24924. undefined -107.90 127.50 -0.61393 730.00 0.0013699 -107.90 127.50 -0.61393 1.4648 1.9531 2272.8 -0.0075173 1995.7 0.23302 730.00 0.0013699 -107.90 127.50 -0.61393 1.4648 1.9531 2272.8 -0.0075173 1995.7 0.23302
-124.62 25302. undefined -106.44 132.54 -0.60402 730.00 0.0013699 -106.44 132.54 -0.60402 1.4668 1.9540 2274.8 -0.0075131 1971.0 0.23347 730.00 0.0013699 -106.44 132.54 -0.60402 1.4668 1.9540 2274.8 -0.0075131 1971.0 0.23347
-123.62 25679. undefined -104.97 137.57 -0.59417 730.00 0.0013699 -104.97 137.57 -0.59417 1.4689 1.9548 2276.8 -0.0075089 1946.9 0.23392 730.00 0.0013699 -104.97 137.57 -0.59417 1.4689 1.9548 2276.8 -0.0075089 1946.9 0.23392
-122.62 26056. undefined -103.50 142.59 -0.58438 730.00 0.0013699 -103.50 142.59 -0.58438 1.4709 1.9557 2278.8 -0.0075046 1923.5 0.23437 730.00 0.0013699 -103.50 142.59 -0.58438 1.4709 1.9557 2278.8 -0.0075046 1923.5 0.23437
-121.62 26430. undefined -102.03 147.61 -0.57463 730.00 0.0013699 -102.03 147.61 -0.57463 1.4730 1.9566 2280.8 -0.0075004 1900.8 0.23482 730.00 0.0013699 -102.03 147.61 -0.57463 1.4730 1.9566 2280.8 -0.0075004 1900.8 0.23482
-120.62 26804. undefined -100.55 152.61 -0.56493 730.00 0.0013699 -100.55 152.61 -0.56493 1.4750 1.9575 2282.8 -0.0074960 1878.7 0.23527 730.00 0.0013699 -100.55 152.61 -0.56493 1.4750 1.9575 2282.8 -0.0074960 1878.7 0.23527
-119.62 27177. undefined -99.077 157.60 -0.55529 730.00 0.0013699 -99.077 157.60 -0.55529 1.4771 1.9584 2284.8 -0.0074917 1857.3 0.23572 730.00 0.0013699 -99.077 157.60 -0.55529 1.4771 1.9584 2284.8 -0.0074917 1857.3 0.23572
-118.62 27548. undefined -97.599 162.59 -0.54569 730.00 0.0013699 -97.599 162.59 -0.54569 1.4791 1.9593 2286.7 -0.0074873 1836.4 0.23617 730.00 0.0013699 -97.599 162.59 -0.54569 1.4791 1.9593 2286.7 -0.0074873 1836.4 0.23617
-117.62 27918. undefined -96.119 167.57 -0.53614 730.00 0.0013699 -96.119 167.57 -0.53614 1.4812 1.9602 2288.7 -0.0074829 1816.0 0.23662 730.00 0.0013699 -96.119 167.57 -0.53614 1.4812 1.9602 2288.7 -0.0074829 1816.0 0.23662
-116.62 28288. undefined -94.636 172.54 -0.52664 730.00 0.0013699 -94.636 172.54 -0.52664 1.4833 1.9612 2290.6 -0.0074785 1796.3 0.23707 730.00 0.0013699 -94.636 172.54 -0.52664 1.4833 1.9612 2290.6 -0.0074785 1796.3 0.23707
-115.62 28656. undefined -93.152 177.50 -0.51719 730.00 0.0013699 -93.152 177.50 -0.51719 1.4854 1.9621 2292.5 -0.0074740 1777.0 0.23752 730.00 0.0013699 -93.152 177.50 -0.51719 1.4854 1.9621 2292.5 -0.0074740 1777.0 0.23752
-114.62 29022. undefined -91.666 182.45 -0.50778 730.00 0.0013699 -91.666 182.45 -0.50778 1.4875 1.9631 2294.3 -0.0074694 1758.2 0.23797 730.00 0.0013699 -91.666 182.45 -0.50778 1.4875 1.9631 2294.3 -0.0074694 1758.2 0.23797
-113.62 29388. undefined -90.177 187.39 -0.49842 730.00 0.0013699 -90.177 187.39 -0.49842 1.4896 1.9641 2296.2 -0.0074649 1739.9 0.23842 730.00 0.0013699 -90.177 187.39 -0.49842 1.4896 1.9641 2296.2 -0.0074649 1739.9 0.23842
-112.62 29753. undefined -88.687 192.32 -0.48911 730.00 0.0013699 -88.687 192.32 -0.48911 1.4917 1.9651 2298.1 -0.0074602 1722.1 0.23887 730.00 0.0013699 -88.687 192.32 -0.48911 1.4917 1.9651 2298.1 -0.0074602 1722.1 0.23887
-111.62 30116. undefined -87.194 197.25 -0.47984 730.00 0.0013699 -87.194 197.25 -0.47984 1.4938 1.9661 2299.9 -0.0074556 1704.8 0.23933 730.00 0.0013699 -87.194 197.25 -0.47984 1.4938 1.9661 2299.9 -0.0074556 1704.8 0.23933
-110.62 30479. undefined -85.699 202.17 -0.47061 730.00 0.0013699 -85.699 202.17 -0.47061 1.4960 1.9671 2301.7 -0.0074509 1687.8 0.23978 730.00 0.0013699 -85.699 202.17 -0.47061 1.4960 1.9671 2301.7 -0.0074509 1687.8 0.23978
-109.62 30840. undefined -84.202 207.08 -0.46143 730.00 0.0013699 -84.202 207.08 -0.46143 1.4981 1.9682 2303.5 -0.0074461 1671.3 0.24023 730.00 0.0013699 -84.202 207.08 -0.46143 1.4981 1.9682 2303.5 -0.0074461 1671.3 0.24023
-108.62 31200. undefined -82.703 211.98 -0.45229 730.00 0.0013699 -82.703 211.98 -0.45229 1.5002 1.9692 2305.3 -0.0074414 1655.2 0.24069 730.00 0.0013699 -82.703 211.98 -0.45229 1.5002 1.9692 2305.3 -0.0074414 1655.2 0.24069
-107.62 31559. undefined -81.201 216.87 -0.44319 730.00 0.0013699 -81.201 216.87 -0.44319 1.5024 1.9703 2307.1 -0.0074365 1639.5 0.24114 730.00 0.0013699 -81.201 216.87 -0.44319 1.5024 1.9703 2307.1 -0.0074365 1639.5 0.24114
-106.62 31917. undefined -79.698 221.76 -0.43414 730.00 0.0013699 -79.698 221.76 -0.43414 1.5046 1.9714 2308.9 -0.0074316 1624.1 0.24159 730.00 0.0013699 -79.698 221.76 -0.43414 1.5046 1.9714 2308.9 -0.0074316 1624.1 0.24159
-105.62 32274. undefined -78.192 226.64 -0.42512 730.00 0.0013699 -78.192 226.64 -0.42512 1.5068 1.9725 2310.6 -0.0074267 1609.1 0.24205 730.00 0.0013699 -78.192 226.64 -0.42512 1.5068 1.9725 2310.6 -0.0074267 1609.1 0.24205
-104.62 32630. undefined -76.684 231.51 -0.41615 730.00 0.0013699 -76.684 231.51 -0.41615 1.5089 1.9736 2312.4 -0.0074217 1594.5 0.24250 730.00 0.0013699 -76.684 231.51 -0.41615 1.5089 1.9736 2312.4 -0.0074217 1594.5 0.24250
-103.62 32985. undefined -75.174 236.37 -0.40721 730.00 0.0013699 -75.174 236.37 -0.40721 1.5112 1.9748 2314.1 -0.0074167 1580.2 0.24296 730.00 0.0013699 -75.174 236.37 -0.40721 1.5112 1.9748 2314.1 -0.0074167 1580.2 0.24296
-102.62 33339. undefined -73.662 241.22 -0.39832 730.00 0.0013699 -73.662 241.22 -0.39832 1.5134 1.9759 2315.8 -0.0074116 1566.2 0.24341 730.00 0.0013699 -73.662 241.22 -0.39832 1.5134 1.9759 2315.8 -0.0074116 1566.2 0.24341
